Time,P3,C3,F3,Fz,F4,C4,P4,Cz,A1,Fp1,Fp2,T3,T5,O1,O2,X3:EMGLE,X2:ECG,F7,F8,X1:EMGRI,A2,T6,T4,Pz,Trigger,Time_Offset,ADC_Status,ADC_Sequence,Event,Comments
0.0000,-124.8,-121.2,-101.8,-101.7,-260.8,-204.3,-93.5,-78.6,-100.8,-110.8,-1085.5,-813.5,-152.8,624.0,-241.5,145.2,-853.2,50.5,-669.3,-2.4,-63.0,-80.7,-184.3,0,0,6,0,70,0,
0.0033,-117.6,-118.8,-101.8,-102.3,-263.2,-204.9,-93.8,-78.9,-89.7,-108.4,-1093.3,-806.0,-149.8,630.0,-238.2,154.5,-846.6,56.2,-681.3,-2.1,-54.0,-80.4,-186.1,0,0,12,0,71,0,
0.0067,-117.9,-119.4,-105.1,-108.0,-262.6,-206.4,-92.6,-78.0,-91.2,-112.6,-1097.8,-809.0,-151.9,632.7,-232.5,159.0,-841.2,48.7,-678.6,-2.4,-63.6,-78.9,-185.8,0,0,18,0,72,0,
0.0100,-117.6,-115.8,-104.8,-106.8,-265.9,-207.9,-94.1,-76.2,-92.1,-110.5,-1092.1,-802.4,-149.5,633.9,-236.4,157.5,-841.5,57.1,-682.5,-1.8,-55.2,-76.5,-187.3,0,0,24,0,73,0,
0.0133,-114.9,-110.4,-97.9,-99.3,-259.9,-204.3,-89.6,-73.5,-87.9,-101.5,-1082.9,-793.4,-152.8,628.8,-236.4,149.4,-844.5,61.9,-670.8,-2.1,-54.9,-80.4,-181.6,0,0,30,0,74,0,
0.0167,-117.9,-115.5,-98.8,-103.8,-262.6,-204.0,-90.8,-79.5,-86.1,-102.1,-1086.1,-797.3,-149.8,631.2,-231.6,168.6,-847.8,65.2,-681.9,-2.1,-54.9,-75.6,-182.8,0,0,36,0,75,0,
0.0200,-116.1,-114.3,-98.8,-99.9,-254.2,-198.3,-90.2,-76.8,-84.0,-106.0,-1079.0,-799.7,-151.0,633.6,-226.2,156.3,-849.9,57.7,-669.9,-2.4,-60.3,-72.9,-176.2,0,0,42,0,76,0,
0.0233,-115.8,-117.0,-100.9,-102.6,-259.0,-204.9,-89.6,-77.7,-82.5,-106.6,-1086.7,-803.6,-148.9,628.8,-220.5,167.7,-849.3,56.8,-677.4,-2.4,-48.0,-73.2,-175.6,0,0,48,0,77,0,
0.0267,-120.3,-117.9,-102.4,-106.8,-264.1,-214.2,-94.4,-79.5,-87.0,-110.2,-1090.6,-806.3,-151.6,623.4,-227.1,175.8,-846.3,55.0,-676.2,-2.4,-56.1,-76.5,-181.0,0,0,54,0,78,0,
0.0300,-113.1,-112.5,-97.3,-98.7,-255.1,-206.4,-87.8,-75.3,-81.0,-104.2,-1087.0,-801.8,-143.5,633.3,-219.0,132.6,-846.6,63.1,-671.7,-2.1,-50.1,-63.6,-173.8,0,0,60,0,79,0,
0.0333,-120.0,-116.1,-101.5,-100.5,-257.8,-209.4,-91.4,-81.0,-84.9,-103.0,-1084.3,-805.4,-154.3,625.5,-226.5,165.9,-845.1,63.4,-669.6,-2.1,-51.0,-68.7,-178.3,0,0,66,0,80,0,
0.0367,-119.1,-119.4,-109.0,-107.1,-263.2,-213.3,-91.4,-83.4,-88.8,-109.3,-1091.2,-804.8,-150.7,640.4,-217.2,147.0,-851.1,53.2,-676.8,-2.1,-56.7,-70.8,-178.3,0,0,72,0,81,0,
0.0400,-125.4,-132.0,-117.7,-112.8,-268.9,-219.3,-100.1,-90.2,-100.8,-117.4,-1097.8,-820.1,-156.1,627.0,-228.0,145.8,-850.8,48.1,-685.5,-2.1,-65.1,-78.6,-186.1,0,0,78,0,82,0,
0.0433,-128.4,-133.2,-118.8,-116.4,-272.2,-220.8,-98.6,-91.4,-108.3,-120.4,-1104.1,-821.3,-157.0,628.8,-233.4,165.6,-850.8,43.0,-699.8,-2.1,-68.1,-78.0,-190.6,0,0,84,0,83,0,
0.0467,-128.1,-134.7,-118.5,-117.3,-271.0,-218.1,-98.6,-92.9,-102.0,-124.0,-1108.0,-820.4,-161.8,625.2,-238.2,157.8,-853.5,41.6,-689.1,-2.1,-63.9,-74.1,-190.6,0,0,90,0,84,0,
0.0500,-128.4,-133.5,-115.9,-117.9,-272.2,-221.7,-97.1,-96.5,-101.7,-122.2,-1104.4,-821.9,-158.8,628.2,-235.5,186.0,-851.1,41.3,-685.5,-1.5,-72.0,-79.5,-193.3,0,0,96,0,85,0,
0.0533,-128.1,-130.5,-121.8,-120.9,-277.3,-228.6,-98.9,-97.1,-107.1,-127.6,-1107.1,-824.9,-156.7,630.3,-232.2,146.7,-845.7,37.1,-689.7,-2.4,-69.3,-83.1,-198.7,0,0,102,0,86,0,
0.0567,-132.0,-137.4,-122.1,-125.4,-280.3,-229.5,-98.3,-100.4,-113.4,-130.9,-1113.9,-833.9,-159.4,628.5,-235.2,138.6,-847.2,33.8,-696.5,-2.4,-73.5,-81.9,-203.8,0,0,108,0,87,0,
0.0600,-131.7,-138.3,-124.2,-125.7,-277.3,-223.5,-99.5,-101.3,-109.5,-130.3,-1113.9,-827.3,-161.8,623.1,-234.0,151.8,-848.7,37.7,-693.2,-2.1,-69.6,-78.3,-203.5,0,0,114,0,88,0,
0.0633,-131.1,-138.9,-122.4,-122.1,-276.4,-219.9,-96.8,-97.4,-105.3,-130.3,-1108.3,-818.3,-159.4,625.5,-236.1,163.2,-849.9,36.8,-690.6,-2.1,-75.9,-76.2,-193.3,0,0,120,0,89,0,
0.0667,-125.4,-132.0,-119.4,-120.0,-277.0,-218.7,-95.6,-90.2,-96.0,-124.3,-1111.0,-809.9,-150.1,633.6,-234.9,164.4,-851.7,46.0,-689.7,-2.4,-66.6,-78.3,-199.0,0,0,126,0,90,0,
0.0700,-122.7,-134.1,-118.8,-120.6,-271.0,-213.3,-93.5,-88.4,-105.3,-121.9,-1105.3,-816.5,-151.3,634.2,-234.3,154.2,-849.9,39.2,-680.4,-2.4,-71.1,-78.9,-196.6,0,0,132,0,91,0,
0.0733,-123.6,-132.3,-114.1,-116.7,-272.5,-215.7,-96.2,-89.3,-106.8,-117.7,-1099.6,-813.2,-150.1,630.3,-237.3,155.1,-848.1,44.5,-676.8,-1.8,-67.5,-89.4,-198.1,0,0,138,0,92,0,
0.0767,-126.0,-135.9,-119.4,-117.6,-270.4,-213.6,-94.4,-87.8,-108.6,-128.8,-1096.3,-818.9,-157.0,624.0,-239.1,155.1,-848.1,32.9,-676.2,-2.1,-66.9,-81.6,-195.4,0,0,144,0,93,0,
0.0800,-118.8,-123.3,-105.7,-104.4,-262.0,-210.3,-90.2,-83.1,-100.8,-114.1,-1085.2,-810.8,-149.8,628.5,-239.4,165.9,-853.2,54.7,-669.0,-2.1,-72.3,-82.2,-193.9,0,0,150,0,94,0,
0.0833,-122.1,-124.8,-103.9,-105.3,-258.4,-207.6,-90.5,-82.8,-94.8,-115.3,-1086.1,-813.5,-150.7,619.2,-249.6,156.0,-851.1,50.2,-665.8,-2.7,-63.6,-90.0,-188.8,0,0,156,0,95,0,
0.0867,-121.5,-124.2,-108.7,-107.4,-265.0,-211.2,-93.8,-85.2,-95.4,-119.2,-1093.6,-815.0,-149.8,630.6,-241.2,162.3,-849.9,49.9,-680.1,-2.4,-62.7,-82.8,-193.3,0,0,162,0,96,0,
0.0900,-122.7,-120.0,-99.7,-100.8,-257.8,-207.0,-92.9,-79.8,-96.3,-109.3,-1083.2,-810.8,-148.9,620.1,-245.4,159.3,-850.8,59.8,-667.9,-2.1,-64.8,-81.3,-188.8,0,0,168,0,97,0,
0.0933,-125.4,-122.7,-104.8,-102.6,-262.3,-207.6,-96.5,-84.6,-97.5,-112.6,-1092.4,-809.9,-145.0,624.3,-247.8,158.1,-849.0,58.3,-686.1,-1.8,-63.6,-82.5,-192.7,0,0,174,0,98,0,
0.0967,-128.7,-124.2,-106.9,-102.9,-257.2,-207.0,-92.0,-81.9,-100.2,-113.2,-1091.2,-817.7,-151.6,615.0,-252.0,146.1,-852.3,57.4,-688.5,-2.4,-60.6,-82.2,-190.0,0,0,180,0,99,0,
0.1000,-124.8,-124.2,-105.1,-102.6,-262.3,-208.8,-97.7,-85.2,-94.8,-107.5,-1087.0,-817.7,-148.0,618.9,-249.0,160.5,-851.4,63.7,-681.3,-2.4,-63.0,-84.6,-190.9,0,0,186,0,100,0,
0.1033,-118.5,-119.7,-97.6,-99.3,-253.3,-204.3,-93.8,-80.4,-86.7,-103.6,-1079.0,-814.4,-145.6,618.6,-246.0,157.2,-853.2,63.7,-660.4,-2.1,-54.0,-87.0,-184.9,0,0,192,0,101,0,
0.1067,-118.8,-117.3,-98.8,-99.9,-260.5,-208.2,-98.0,-82.8,-87.9,-107.8,-1084.9,-807.5,-142.9,622.8,-243.0,159.6,-851.7,61.9,-672.0,-1.8,-54.3,-85.8,-188.5,0,0,198,0,102,0,
0.1100,-117.3,-114.0,-90.4,-94.2,-256.6,-205.5,-98.3,-81.6,-84.6,-100.6,-1077.8,-800.6,-138.7,616.8,-252.9,164.4,-851.7,66.4,-666.4,-2.1,-57.0,-90.9,-185.2,0,0,204,0,103,0,
0.1133,-119.7,-117.6,-95.5,-100.5,-262.0,-211.8,-99.5,-85.5,-90.6,-105.7,-1082.6,-803.6,-143.2,615.0,-251.7,160.5,-853.5,66.1,-668.7,-2.1,-57.3,-89.7,-186.7,0,0,210,0,104,0,
0.1167,-117.3,-118.2,-99.4,-98.7,-261.4,-207.6,-98.9,-82.8,-91.8,-104.5,-1079.0,-807.5,-146.2,620.1,-251.7,158.4,-849.6,68.8,-665.5,-2.4,-56.1,-87.9,-188.2,0,0,216,0,105,0,
0.1200,-117.9,-117.9,-100.3,-101.7,-261.7,-209.4,-95.6,-82.5,-90.3,-106.9,-1086.1,-807.2,-144.4,620.1,-246.0,159.9,-849.6,67.6,-674.1,-2.4,-56.7,-82.8,-190.3,0,0,222,0,106,0,
0.1233,-117.3,-114.3,-93.1,-96.6,-256.6,-202.8,-95.9,-81.6,-81.6,-100.3,-1075.4,-803.0,-145.9,618.0,-245.4,162.0,-852.6,72.0,-660.4,-2.1,-50.4,-83.1,-181.6,0,0,228,0,107,0,
0.1267,-119.7,-115.5,-95.8,-99.6,-264.1,-206.1,-101.0,-82.8,-81.6,-105.4,-1084.6,-804.5,-142.9,624.3,-247.5,189.0,-849.3,69.4,-666.7,-2.1,-62.7,-92.1,-185.5,0,0,234,0,108,0,
0.1300,-117.3,-113.4,-91.9,-94.8,-254.8,-200.7,-97.7,-78.3,-79.8,-97.0,-1080.5,-802.7,-152.2,614.4,-248.4,155.4,-849.3,74.1,-658.0,-2.1,-51.6,-86.1,-178.6,0,0,240,0,109,0,
0.1333,-122.1,-118.5,-101.5,-104.1,-263.8,-208.5,-97.7,-83.1,-93.6,-111.7,-1086.1,-810.8,-147.4,625.2,-244.5,144.6,-849.6,59.5,-670.5,-2.1,-59.7,-85.5,-184.0,0,0,246,0,110,0,
0.1367,-121.8,-114.6,-96.7,-97.8,-259.0,-201.9,-95.0,-78.9,-88.5,-102.4,-1079.3,-801.5,-159.4,612.6,-253.2,163.5,-852.6,75.0,-666.1,-2.1,-52.2,-89.7,-172.3,0,0,252,0,111,0,
0.1400,-123.3,-120.3,-103.6,-103.8,-257.8,-204.9,-98.0,-81.6,-92.4,-109.0,-1084.6,-806.0,-157.9,623.1,-249.9,166.5,-854.7,58.9,-673.5,-2.4,-57.0,-83.7,-178.9,0,0,258,0,112,0,
0.1433,-119.7,-113.7,-98.2,-99.9,-259.0,-204.0,-95.3,-79.8,-86.7,-104.2,-1083.7,-801.8,-146.8,618.3,-249.0,170.1,-851.1,70.9,-670.2,-2.1,-55.2,-85.2,-178.9,0,0,264,0,113,0,
0.1467,-121.5,-122.4,-104.5,-99.0,-256.0,-204.6,-97.7,-80.1,-85.2,-106.0,-1080.5,-803.3,-148.9,613.8,-247.2,133.5,-857.7,66.1,-666.1,-2.1,-52.2,-87.3,-176.2,0,0,270,0,114,0,
0.1500,-119.1,-118.5,-98.2,-94.2,-253.6,-201.9,-92.6,-76.5,-87.0,-100.9,-1078.4,-799.1,-145.6,620.1,-242.7,143.4,-857.1,70.3,-662.2,-2.1,-54.6,-80.4,-177.7,0,0,276,0,115,0,
0.1533,-123.0,-121.5,-99.7,-98.1,-259.0,-205.2,-95.0,-78.9,-91.5,-106.0,-1083.2,-804.8,-149.5,621.3,-239.7,139.2,-853.2,65.8,-670.2,-2.4,-55.5,-78.0,-183.4,0,0,282,0,116,0,
0.1567,-105.3,-107.1,-82.0,-87.0,-244.3,-191.4,-81.2,-67.2,-77.4,-92.6,-1070.3,-787.1,-132.2,633.0,-225.3,155.7,-854.4,80.7,-657.4,-2.1,-47.4,-62.4,-170.2,0,0,288,0,117,0,
0.1600,-121.2,-124.2,-101.5,-104.7,-260.5,-210.0,-95.9,-83.1,-89.1,-112.9,-1090.6,-802.1,-145.6,621.9,-236.7,154.2,-854.4,59.8,-681.0,-2.4,-54.9,-78.3,-186.7,0,0,294,0,118,0,
0.1633,-119.1,-120.9,-98.8,-103.2,-260.2,-205.5,-95.6,-78.0,-84.9,-106.0,-1090.3,-800.6,-140.8,625.5,-233.1,153.9,-857.7,63.1,-678.0,-2.4,-59.7,-78.0,-188.8,0,0,300,0,119,0,
0.1667,-118.8,-122.4,-96.1,-100.5,-258.1,-201.6,-96.2,-77.1,-80.4,-105.1,-1086.1,-795.5,-146.8,622.5,-233.1,155.1,-850.5,66.1,-677.1,-2.1,-52.5,-78.9,-184.6,0,0,306,0,120,0,
0.1700,-110.1,-117.3,-94.6,-102.9,-259.0,-198.6,-91.1,-75.6,-83.7,-107.8,-1088.2,-790.1,-137.2,628.2,-228.0,153.3,-853.5,69.1,-670.2,-2.7,-48.3,-74.7,-179.2,0,0,312,0,121,0,
0.1733,-110.1,-120.0,-100.3,-102.0,-265.3,-204.0,-92.9,-76.5,-84.9,-110.8,-1091.2,-794.9,-133.7,627.9,-229.5,164.7,-853.8,64.0,-675.6,-2.1,-50.4,-73.2,-188.2,0,0,318,0,122,0,
0.1767,-108.0,-117.3,-99.7,-101.4,-261.4,-202.2,-93.2,-75.3,-86.7,-108.4,-1084.9,-791.6,-134.9,625.2,-227.1,178.2,-855.6,70.0,-672.6,-1.8,-50.4,-71.1,-188.5,0,0,324,0,123,0,
0.1800,-107.1,-121.8,-102.7,-104.4,-264.4,-206.7,-95.3,-80.7,-93.9,-113.5,-1090.0,-795.8,-130.7,630.9,-228.9,190.5,-849.0,60.7,-675.3,-2.1,-51.6,-73.2,-182.5,0,0,330,0,124,0,
0.1833,-106.5,-121.8,-102.1,-108.0,-266.5,-208.8,-92.9,-82.5,-90.0,-112.9,-1098.4,-793.4,-134.9,626.1,-231.0,140.4,-852.3,63.7,-675.0,-2.4,-56.7,-74.4,-189.7,0,0,336,0,125,0,
0.1867,-107.4,-123.3,-104.5,-106.8,-265.3,-207.3,-91.4,-81.9,-85.5,-111.1,-1093.9,-801.2,-128.9,628.8,-228.9,138.3,-855.6,58.6,-670.8,-2.1,-57.3,-78.9,-193.6,0,0,342,0,126,0,
0.1900,-109.8,-130.2,-107.8,-111.0,-265.6,-212.1,-90.8,-85.5,-97.2,-118.3,-1100.8,-807.2,-134.9,623.7,-231.0,150.9,-851.7,49.9,-678.6,-2.1,-63.9,-77.4,-194.5,0,0,348,0,127,0,
0.1933,-108.6,-130.8,-108.1,-113.1,-271.3,-213.9,-93.8,-87.8,-96.9,-118.6,-1099.9,-803.0,-131.3,623.1,-225.9,149.7,-852.6,52.9,-681.3,-2.1,-65.1,-74.1,-193.3,0,0,354,0,128,0,
0.1967,-109.2,-122.1,-101.2,-108.3,-266.2,-211.2,-91.7,-81.6,-97.8,-110.8,-1093.6,-797.6,-131.3,627.3,-226.5,148.8,-857.4,60.4,-675.9,-2.1,-61.5,-73.2,-187.6,0,0,360,0,129,0,
0.2000,-104.4,-117.3,-100.9,-103.8,-262.9,-207.0,-87.8,-79.2,-90.6,-109.3,-1091.2,-793.7,-123.8,630.0,-223.8,153.3,-861.0,66.1,-671.1,-2.1,-58.8,-69.6,-186.7,0,0,366,0,130,0,
0.2033,-109.5,-124.2,-103.9,-111.6,-269.2,-218.7,-95.6,-87.2,-94.2,-116.8,-1101.1,-798.8,-125.3,633.0,-221.4,167.1,-858.9,58.6,-679.5,-2.1,-65.4,-82.2,-191.2,0,0,372,0,131,0,
0.2067,-106.2,-117.3,-99.4,-105.0,-262.9,-211.8,-93.2,-81.9,-84.9,-113.5,-1093.9,-794.0,-123.5,627.3,-223.2,157.2,-856.8,61.6,-669.0,-2.4,-62.7,-83.1,-188.5,0,0,378,0,132,0,
0.2100,-106.5,-116.7,-97.9,-102.6,-258.7,-209.1,-90.2,-81.9,-91.5,-111.1,-1095.1,-788.0,-129.2,627.9,-223.5,156.0,-856.2,64.3,-673.2,-2.1,-54.6,-78.3,-185.2,0,0,384,0,133,0,
0.2133,-105.6,-113.4,-98.8,-102.6,-259.0,-203.4,-85.7,-80.1,-85.5,-107.8,-1090.0,-786.2,-131.6,625.8,-218.4,150.0,-860.1,62.2,-669.9,-2.4,-53.7,-75.0,-182.2,0,0,390,0,134,0,
0.2167,-109.8,-119.4,-101.8,-105.0,-260.8,-202.8,-84.2,-79.8,-91.5,-117.1,-1092.1,-789.2,-136.9,623.1,-225.0,144.9,-857.4,53.2,-670.2,-2.4,-57.6,-77.7,-184.0,0,0,396,0,135,0,
0.2200,-108.3,-119.1,-101.5,-106.2,-265.3,-207.3,-85.4,-84.9,-95.1,-119.2,-1097.5,-791.0,-127.4,625.5,-225.3,157.2,-858.9,55.0,-678.9,-1.8,-58.2,-79.8,-189.1,0,0,402,0,136,0,
0.2233,-108.0,-121.2,-104.5,-112.2,-269.5,-213.9,-92.0,-88.7,-92.1,-113.8,-1098.4,-790.7,-119.9,630.9,-221.1,176.4,-859.5,64.0,-683.7,-2.1,-57.0,-82.2,-191.2,0,0,408,0,137,0,
0.2267,-105.6,-119.4,-101.8,-108.0,-266.5,-211.5,-87.2,-85.8,-83.4,-108.4,-1092.7,-784.7,-120.8,625.8,-228.3,158.1,-857.7,70.6,-677.1,-2.1,-58.2,-82.5,-188.8,0,0,414,0,138,0,
0.2300,-108.6,-122.4,-106.9,-114.0,-271.6,-212.7,-88.4,-87.8,-94.8,-116.8,-1100.5,-793.7,-127.7,632.7,-226.2,142.8,-861.3,62.5,-680.1,-2.4,-61.5,-76.8,-192.1,0,0,420,0,139,0,
0.2333,-107.4,-122.1,-100.9,-109.5,-268.0,-208.2,-89.3,-84.0,-97.2,-108.1,-1089.1,-792.2,-129.5,626.1,-226.8,161.4,-858.0,67.3,-671.1,-2.7,-56.1,-72.3,-188.8,0,0,426,0,140,0,
0.2367,-111.9,-121.5,-103.9,-110.7,-264.1,-210.0,-91.7,-85.5,-94.8,-111.7,-1093.6,-794.6,-127.7,629.7,-227.4,178.5,-864.3,65.8,-672.9,-2.1,-58.8,-75.0,-188.2,0,0,432,0,141,0,
0.2400,-103.2,-114.9,-93.1,-99.3,-254.5,-201.6,-86.0,-78.3,-95.4,-104.8,-1082.0,-787.7,-126.2,630.9,-226.2,152.1,-864.6,70.3,-658.0,-2.4,-57.3,-75.0,-177.7,0,0,438,0,142,0,
0.2433,-102.9,-117.6,-96.1,-100.8,-255.7,-201.9,-85.4,-78.9,-88.8,-106.3,-1085.5,-790.1,-127.7,632.4,-224.4,136.8,-867.3,69.7,-657.1,-2.4,-55.8,-75.9,-175.9,0,0,444,0,143,0,
0.2467,-102.3,-112.8,-92.2,-95.4,-249.1,-193.8,-82.4,-70.2,-86.4,-99.1,-1081.1,-788.0,-125.3,632.1,-222.9,149.4,-860.1,78.9,-653.2,-2.1,-45.9,-73.5,-173.2,0,0,450,0,144,0,
0.2500,-104.4,-118.5,-102.1,-103.2,-258.1,-204.9,-88.7,-78.0,-86.1,-108.1,-1090.6,-792.5,-129.5,628.2,-227.1,153.0,-864.0,66.1,-660.7,-2.1,-51.9,-73.5,-180.7,0,0,456,0,145,0,
0.2533,-102.3,-119.7,-104.8,-104.4,-261.4,-203.7,-92.3,-81.0,-96.9,-112.9,-1090.0,-793.4,-130.1,633.9,-229.2,153.9,-865.5,59.8,-663.7,-2.1,-61.5,-68.7,-177.4,0,0,462,0,146,0,
0.2567,-102.0,-118.8,-105.1,-105.3,-257.5,-204.6,-88.1,-80.7,-94.2,-112.6,-1087.6,-794.0,-131.6,624.6,-231.3,155.4,-865.8,58.0,-663.7,-2.1,-55.5,-67.2,-178.9,0,0,468,0,147,0,
0.2600,-97.5,-111.0,-98.2,-98.4,-252.7,-202.2,-85.1,-75.9,-90.0,-106.3,-1078.4,-783.2,-121.4,632.4,-218.4,154.8,-857.1,63.7,-661.3,-2.1,-54.6,-66.3,-175.3,0,0,474,0,148,0,
0.2633,-96.0,-112.2,-100.6,-101.7,-252.7,-200.7,-83.6,-73.5,-87.9,-109.3,-1086.4,-790.1,-123.2,635.3,-215.7,159.9,-858.3,63.1,-661.6,-2.4,-49.5,-68.4,-172.0,0,0,480,0,149,0,
0.2667,-98.1,-114.9,-102.1,-101.1,-253.3,-196.8,-82.7,-74.7,-87.0,-107.5,-1082.9,-785.3,-125.9,629.1,-218.1,174.0,-857.4,64.6,-659.8,-2.1,-49.2,-65.7,-169.3,0,0,486,0,150,0,
0.2700,-99.3,-115.2,-101.8,-103.5,-259.3,-200.1,-85.4,-75.3,-88.8,-108.4,-1087.9,-786.5,-123.2,635.6,-222.3,156.0,-856.2,66.4,-663.1,-2.4,-56.7,-71.7,-175.6,0,0,492,0,151,0,
0.2733,-99.6,-117.0,-99.1,-103.8,-255.7,-197.1,-82.1,-79.2,-90.0,-115.3,-1089.1,-785.3,-123.8,644.0,-219.0,144.0,-853.2,62.2,-659.2,-2.4,-45.9,-64.8,-167.8,0,0,498,0,152,0,
0.2767,-100.8,-116.7,-92.5,-94.8,-247.6,-195.0,-81.2,-75.6,-91.8,-98.2,-1074.5,-782.3,-129.5,631.8,-223.2,158.1,-852.9,72.6,-652.3,-2.1,-42.6,-59.7,-168.1,0,0,504,0,153,0,
0.2800,-100.2,-117.6,-96.7,-96.3,-252.4,-198.9,-80.0,-79.5,-85.5,-103.0,-1079.6,-781.4,-122.0,637.7,-220.2,154.5,-858.3,67.6,-663.4,-2.1,-45.9,-60.9,-171.1,0,0,510,0,154,0,
0.2833,-100.8,-117.6,-98.8,-97.8,-250.9,-200.7,-80.0,-79.2,-84.9,-103.6,-1082.9,-786.2,-125.0,635.3,-217.8,156.6,-861.9,65.8,-659.8,-2.1,-47.7,-61.2,-171.4,0,0,516,0,155,0,
0.2867,-102.0,-112.2,-96.7,-97.2,-257.5,-205.5,-79.7,-82.2,-78.0,-104.2,-1083.7,-781.4,-115.4,644.6,-215.1,154.5,-859.2,70.0,-661.6,-2.1,-50.1,-61.2,-176.5,0,0,522,0,156,0,
0.2900,-105.3,-114.3,-96.1,-94.5,-249.4,-200.7,-79.7,-80.7,-82.8,-99.1,-1079.3,-777.2,-127.1,633.3,-220.5,156.0,-857.7,74.7,-651.4,-2.1,-48.3,-57.6,-171.4,0,0,528,0,157,0,
0.2933,-106.2,-118.5,-95.5,-96.0,-248.2,-201.9,-79.1,-80.7,-87.0,-102.7,-1077.2,-778.7,-124.4,638.6,-215.1,155.4,-861.3,71.7,-650.5,-2.1,-44.1,-55.5,-171.7,0,0,534,0,158,0,
0.2967,-110.1,-120.9,-100.3,-97.2,-248.8,-200.7,-82.7,-78.6,-87.0,-102.7,-1078.1,-787.1,-129.2,636.8,-216.3,156.9,-860.4,69.1,-652.3,-2.4,-47.4,-56.4,-170.5,0,0,540,0,159,0,
0.3000,-105.6,-113.4,-96.7,-95.1,-251.2,-197.4,-80.6,-75.0,-79.8,-105.1,-1075.4,-781.1,-126.2,635.0,-213.0,157.2,-861.9,73.2,-650.5,-2.1,-39.0,-57.3,-164.5,0,0,546,0,160,0,
0.3033,-111.0,-121.5,-101.5,-97.2,-252.4,-198.9,-82.4,-81.3,-88.8,-103.9,-1079.3,-788.9,-132.8,636.5,-217.2,156.0,-855.6,65.2,-658.0,-2.4,-52.8,-54.0,-172.3,0,0,552,0,161,0,
0.3067,-107.4,-118.8,-100.3,-97.2,-251.8,-203.1,-82.1,-79.8,-84.3,-109.0,-1088.5,-782.6,-130.7,641.3,-214.2,155.7,-865.2,65.2,-678.9,-1.8,-52.5,-66.3,-178.0,0,0,558,0,162,0,
0.3100,-107.1,-113.1,-94.9,-89.4,-242.8,-196.2,-81.8,-72.9,-81.9,-99.1,-1079.3,-775.4,-128.6,639.5,-214.2,154.8,-870.6,75.3,-661.0,-2.1,-49.5,-65.1,-175.0,0,0,564,0,163,0,
0.3133,-106.2,-111.9,-94.6,-91.2,-245.5,-197.1,-83.6,-74.7,-76.5,-99.1,-1074.2,-780.8,-124.4,641.0,-211.5,159.0,-877.2,76.5,-661.3,-2.1,-42.3,-64.8,-175.3,0,0,570,0,164,0,
0.3167,-106.5,-120.0,-103.0,-97.5,-253.0,-199.8,-89.3,-78.3,-98.4,-106.3,-1080.5,-790.4,-126.2,638.3,-212.7,180.3,-880.8,64.6,-656.8,-2.4,-52.2,-57.6,-174.7,0,0,576,0,165,0,
0.3200,-106.2,-116.7,-101.8,-96.3,-250.9,-198.3,-82.7,-78.0,-92.1,-106.3,-1085.2,-787.4,-128.6,640.1,-210.9,146.4,-882.3,66.7,-661.3,-2.4,-48.6,-56.4,-172.6,0,0,582,0,166,0,
0.3233,-102.0,-115.5,-102.1,-96.0,-249.1,-196.5,-83.9,-78.3,-83.7,-104.5,-1079.9,-787.7,-127.7,644.0,-215.7,151.8,-885.3,71.7,-658.9,-2.7,-46.5,-60.6,-174.1,0,0,588,0,167,0,
0.3267,-104.4,-117.9,-99.1,-99.6,-252.1,-202.2,-84.8,-75.3,-87.0,-106.0,-1083.7,-781.7,-128.9,644.0,-216.3,158.7,-884.1,71.5,-656.2,-2.4,-50.1,-63.6,-176.5,0,0,594,0,168,0,
0.3300,-102.3,-119.1,-101.2,-102.6,-257.8,-203.4,-84.5,-76.5,-91.8,-110.2,-1083.5,-781.4,-128.9,652.1,-207.6,202.8,-879.0,65.5,-658.9,-2.1,-54.3,-61.2,-178.9,0,0,600,0,169,0,
0.3333,-104.1,-120.6,-102.7,-102.3,-259.6,-202.8,-84.8,-77.1,-94.5,-108.1,-1079.6,-778.1,-130.4,650.3,-210.6,173.4,-880.5,68.8,-658.6,-2.4,-50.4,-62.1,-178.0,0,0,606,0,170,0,
0.3367,-111.9,-126.6,-112.9,-107.7,-261.7,-206.4,-90.5,-83.1,-98.1,-113.5,-1084.9,-783.5,-139.6,641.9,-220.5,162.0,-874.5,60.4,-664.6,-2.1,-57.3,-66.0,-182.8,0,0,612,0,171,0,
0.3400,-114.6,-129.3,-111.7,-113.4,-266.5,-208.2,-96.5,-84.3,-103.8,-119.8,-1092.1,-786.5,-140.2,642.5,-221.1,114.0,-872.4,58.6,-675.6,-2.1,-58.8,-66.6,-184.0,0,0,618,0,172,0,
0.3433,-111.0,-118.8,-103.9,-102.6,-256.0,-201.9,-88.4,-78.0,-88.5,-110.5,-1081.7,-778.4,-137.5,636.8,-221.7,120.3,-864.6,70.0,-665.2,-2.4,-51.6,-61.5,-176.2,0,0,624,0,173,0,
0.3467,-105.9,-109.8,-92.5,-94.8,-244.9,-194.7,-82.4,-69.9,-84.0,-101.2,-1079.3,-775.1,-135.2,635.9,-218.7,138.0,-865.2,78.3,-651.7,-2.4,-47.1,-58.5,-167.5,0,0,630,0,174,0,
0.3500,-103.5,-110.7,-95.8,-98.4,-252.4,-198.0,-86.9,-71.1,-86.7,-104.5,-1081.7,-777.2,-130.7,634.2,-218.1,150.3,-868.8,70.3,-649.9,-2.4,-53.4,-57.3,-172.9,0,0,636,0,175,0,
0.3533,-105.0,-111.0,-92.5,-94.2,-250.6,-195.6,-85.4,-68.4,-87.3,-104.2,-1080.5,-779.6,-138.4,631.2,-228.9,171.3,-867.6,75.0,-650.5,-2.1,-50.7,-53.7,-168.4,0,0,642,0,176,0,
0.3567,-105.0,-114.6,-94.6,-98.7,-253.3,-197.1,-85.7,-71.4,-91.8,-111.1,-1085.8,-782.3,-136.9,629.7,-232.5,138.3,-869.7,70.3,-656.2,-2.1,-45.6,-57.3,-174.7,0,0,648,0,177,0,
0.3600,-104.4,-118.5,-98.5,-99.3,-250.0,-195.3,-85.4,-71.1,-92.4,-109.9,-1078.7,-786.5,-136.1,629.1,-228.6,148.2,-873.0,67.6,-657.7,-2.1,-48.6,-62.7,-170.2,0,0,654,0,178,0,
0.3633,-105.3,-118.8,-99.1,-100.8,-253.0,-198.3,-90.2,-71.1,-90.3,-109.9,-1084.3,-785.9,-137.8,630.0,-231.0,145.5,-874.8,65.5,-663.7,-2.4,-57.0,-73.8,-176.8,0,0,660,0,179,0,
0.3667,-101.1,-121.2,-97.0,-99.9,-246.7,-193.8,-88.1,-69.0,-90.9,-112.6,-1083.5,-782.3,-135.2,627.9,-227.1,152.4,-873.3,61.6,-651.7,-1.8,-55.2,-69.3,-168.4,0,0,666,0,180,0,
0.3700,-102.9,-121.5,-99.1,-100.2,-250.9,-193.8,-86.6,-69.6,-88.8,-114.1,-1092.4,-780.8,-132.8,633.6,-226.5,152.1,-870.9,60.4,-660.4,-2.4,-46.8,-63.3,-173.2,0,0,672,0,181,0,
0.3733,-100.2,-121.2,-96.1,-97.5,-245.2,-189.9,-86.3,-72.6,-93.3,-111.1,-1086.4,-782.9,-128.6,634.2,-228.6,154.5,-874.8,67.0,-665.2,-1.8,-51.3,-60.0,-165.7,0,0,678,0,182,0,
0.3767,-104.4,-117.3,-93.7,-92.7,-240.1,-186.6,-83.0,-68.7,-86.7,-104.8,-1080.2,-777.5,-135.5,625.5,-231.0,165.6,-872.7,67.9,-655.3,-2.4,-44.1,-66.0,-160.0,0,0,684,0,183,0,
0.3800,-103.8,-117.6,-96.1,-93.3,-242.2,-188.7,-83.6,-70.2,-88.8,-101.5,-1078.1,-777.8,-134.9,625.5,-227.7,157.8,-872.4,71.2,-646.0,-1.8,-43.5,-62.7,-165.4,0,0,690,0,184,0,
0.3833,-100.5,-118.2,-98.2,-94.2,-240.1,-188.7,-81.5,-67.8,-86.1,-101.2,-1072.4,-779.0,-131.6,628.5,-225.0,153.6,-872.7,70.0,-640.4,-2.1,-45.6,-65.7,-160.9,0,0,696,0,185,0,
0.3867,-104.1,-116.4,-98.5,-96.3,-245.2,-193.5,-85.4,-65.4,-84.0,-108.7,-1075.4,-775.1,-129.5,628.8,-228.6,156.9,-872.7,71.2,-645.5,-2.4,-40.2,-63.6,-164.2,0,0,702,0,186,0,
0.3900,-105.6,-123.3,-106.6,-101.1,-251.2,-196.8,-84.8,-72.3,-96.0,-113.8,-1084.9,-784.4,-134.3,630.0,-224.4,158.7,-873.6,62.8,-653.8,-2.4,-48.3,-63.6,-168.7,0,0,708,0,187,0,
0.3933,-105.3,-119.7,-98.2,-96.3,-248.8,-195.9,-83.3,-70.5,-95.1,-106.6,-1075.4,-778.1,-133.4,629.1,-230.1,159.0,-873.6,67.3,-646.6,-2.1,-41.7,-63.6,-167.2,0,0,714,0,188,0,
0.3967,-107.4,-119.7,-98.5,-97.8,-249.1,-195.3,-85.1,-72.6,-90.0,-111.4,-1078.7,-785.3,-141.7,631.2,-231.6,159.0,-876.3,66.1,-646.0,-2.4,-41.1,-67.2,-168.1,0,0,720,0,189,0,
0.4000,-109.5,-119.7,-100.9,-99.0,-253.6,-197.1,-86.9,-72.9,-92.1,-112.6,-1082.6,-786.5,-136.9,628.5,-231.0,163.5,-877.5,64.3,-648.1,-2.7,-46.5,-65.4,-167.5,0,0,726,0,190,0,
0.4033,-110.1,-120.0,-97.6,-96.3,-250.3,-197.7,-83.6,-71.7,-84.9,-105.7,-1073.6,-795.5,-135.2,631.8,-223.8,178.5,-872.7,68.2,-642.5,-2.1,-45.6,-66.6,-168.1,0,0,732,0,191,0,
0.4067,-116.1,-120.9,-100.3,-102.6,-255.7,-205.5,-90.5,-77.4,-85.8,-116.5,-1085.8,-787.1,-130.1,631.8,-228.9,175.5,-866.4,64.0,-654.1,-2.1,-49.8,-74.4,-172.3,0,0,738,0,192,0,
0.4100,-112.8,-124.2,-101.8,-105.0,-260.2,-205.2,-93.8,-78.3,-96.0,-118.0,-1090.6,-787.4,-134.6,630.0,-231.3,156.6,-814.5,59.5,-659.8,-2.4,-53.1,-72.9,-175.9,0,0,744,0,193,0,
0.4133,-110.1,-119.1,-99.7,-103.8,-257.5,-207.6,-91.7,-76.2,-96.3,-115.9,-1092.1,-783.5,-136.9,629.4,-232.5,146.1,-742.5,64.0,-664.0,-2.1,-52.5,-73.2,-175.0,0,0,750,0,194,0,
0.4167,-111.0,-117.0,-99.7,-99.6,-252.7,-199.8,-84.5,-71.7,-96.3,-116.5,-1092.4,-782.6,-137.2,631.8,-226.8,158.7,-705.3,63.1,-660.4,-2.4,-49.2,-64.2,-167.8,0,0,756,0,195,0,
0.4200,-113.7,-122.4,-100.6,-101.1,-253.9,-200.4,-92.0,-72.6,-94.8,-112.6,-1086.4,-782.9,-142.6,621.0,-237.0,184.5,-760.8,64.0,-658.0,-2.4,-53.1,-73.2,-173.8,0,0,762,0,196,0,
0.4233,-116.4,-123.9,-100.9,-102.3,-258.4,-203.7,-93.8,-77.1,-93.6,-119.5,-1092.4,-785.3,-146.5,618.6,-234.3,145.2,-914.7,60.1,-655.6,-2.1,-51.6,-69.9,-175.3,0,0,768,0,197,0,
0.4267,-116.1,-126.3,-104.2,-105.9,-263.2,-208.5,-91.7,-79.2,-92.7,-127.0,-1096.0,-784.4,-141.4,631.8,-234.6,147.9,-1131.9,54.1,-663.4,-2.4,-67.2,-71.1,-176.8,0,0,774,0,198,0,
0.4300,-102.3,-115.8,-91.0,-93.3,-248.5,-196.8,-75.5,-62.4,-87.6,-112.9,-1084.6,-775.1,-127.7,642.2,-222.6,172.5,-1380.3,66.1,-648.7,-2.1,-57.6,-51.9,-165.7,0,0,780,0,199,0,
0.4333,-114.6,-125.7,-104.2,-106.8,-265.0,-210.0,-89.9,-78.3,-91.5,-123.7,-1097.5,-781.7,-141.4,627.6,-238.8,157.2,-1603.8,55.6,-665.5,-2.4,-77.4,-66.3,-179.8,0,0,786,0,200,0,
0.4367,-115.8,-130.5,-107.2,-103.8,-263.8,-212.1,-88.7,-80.4,-99.9,-130.6,-1099.0,-793.4,-146.8,628.5,-229.5,147.3,-1782.9,46.3,-664.6,-2.4,-81.0,-63.9,-181.6,0,0,792,0,201,0,
0.4400,-108.3,-121.8,-102.4,-99.6,-259.6,-211.2,-84.8,-76.5,-88.5,-121.3,-1092.4,-783.2,-135.2,637.1,-224.7,152.7,-1755.6,55.6,-669.9,-2.4,-71.1,-61.2,-174.7,0,0,798,0,202,0,
0.4433,-107.1,-122.1,-100.6,-97.2,-252.4,-205.8,-77.9,-75.6,-99.6,-122.2,-1093.6,-788.9,-137.5,638.9,-226.5,162.3,-1630.5,50.5,-658.9,-2.4,-72.6,-60.6,-170.2,0,0,804,0,203,0,
0.4467,-112.8,-130.5,-109.9,-106.8,-266.2,-219.3,-89.9,-83.7,-110.4,-130.6,-1106.5,-801.5,-140.5,629.7,-237.0,157.2,-1368.6,43.9,-666.4,-2.4,-82.2,-75.3,-181.6,0,0,810,0,204,0,
0.4500,-111.6,-122.7,-99.7,-93.3,-250.9,-204.9,-80.3,-71.7,-107.7,-117.7,-1092.4,-794.6,-148.9,621.3,-235.8,156.3,-1116.3,56.5,-650.8,-2.4,-62.1,-62.7,-167.5,0,0,816,0,205,0,
0.4533,-109.8,-119.7,-95.8,-93.0,-254.2,-207.0,-80.0,-69.9,-103.5,-112.9,-1087.0,-786.8,-145.3,624.9,-230.4,154.2,-942.6,62.8,-651.1,-2.7,-52.8,-60.6,-169.9,0,0,822,0,206,0,
0.4567,-109.5,-118.5,-91.6,-91.2,-252.4,-207.3,-82.7,-71.4,-98.4,-108.4,-1082.6,-789.2,-145.9,621.9,-233.4,157.8,-964.8,66.7,-649.6,-2.4,-53.4,-63.0,-171.7,0,0,828,0,207,0,
0.4600,-106.8,-116.7,-93.4,-91.2,-250.0,-200.7,-78.8,-67.8,-99.6,-112.6,-1085.8,-786.5,-139.0,631.2,-231.0,159.3,-1007.1,60.7,-644.3,-2.1,-54.6,-56.7,-167.2,0,0,834,0,208,0,
0.4633,-106.5,-115.8,-90.7,-89.7,-249.4,-196.8,-73.7,-68.7,-98.4,-106.3,-1082.6,-782.0,-140.5,627.3,-230.7,163.5,-1023.6,69.1,-644.0,-1.8,-48.6,-54.0,-161.5,0,0,840,0,209,0,
0.4667,-102.9,-119.7,-91.9,-93.3,-254.2,-199.8,-77.9,-73.2,-98.4,-112.0,-1080.8,-777.8,-136.9,632.1,-232.8,157.8,-1009.5,67.0,-652.3,-1.8,-51.0,-63.6,-165.4,0,0,846,0,210,0,
0.4700,-104.4,-118.2,-90.1,-92.1,-253.6,-199.5,-78.8,-71.7,-94.2,-109.6,-1082.6,-779.3,-138.7,627.9,-229.2,157.2,-967.8,69.7,-658.0,-2.1,-52.5,-63.6,-162.7,0,0,852,0,211,0,
0.4733,-105.0,-120.3,-94.6,-96.3,-256.9,-203.1,-81.2,-72.6,-99.6,-115.6,-1090.9,-783.5,-135.5,628.8,-231.0,178.8,-934.2,58.6,-662.2,-2.4,-60.3,-62.7,-167.5,0,0,858,0,212,0,
0.4767,-108.9,-122.1,-97.9,-97.8,-260.2,-202.5,-81.8,-72.6,-110.7,-120.1,-1096.0,-785.3,-140.8,624.0,-233.1,158.4,-926.4,52.6,-665.2,-2.1,-68.1,-63.0,-171.1,0,0,864,0,213,0,
0.4800,-108.9,-119.1,-96.7,-102.3,-267.1,-206.7,-80.0,-72.6,-100.2,-128.2,-1105.9,-780.8,-134.0,624.6,-231.9,161.1,-917.4,53.5,-674.4,-2.7,-65.7,-68.4,-174.7,0,0,870,0,214,0,
0.4833,-109.2,-117.9,-90.4,-98.1,-260.5,-203.4,-82.7,-71.4,-92.4,-111.4,-1083.5,-777.5,-137.2,627.6,-232.8,150.0,-911.7,67.6,-648.7,-2.4,-50.4,-70.8,-162.1,0,0,876,0,215,0,
0.4867,-106.8,-119.7,-92.2,-95.1,-261.1,-202.5,-83.3,-73.2,-93.6,-98.5,-1068.8,-776.0,-139.3,628.5,-230.7,148.5,-905.4,68.8,-640.4,-2.7,-43.2,-63.0,-157.6,0,0,882,0,216,0,
0.4900,-109.8,-117.6,-90.7,-92.4,-257.8,-201.3,-80.3,-67.2,-88.5,-97.9,-1072.1,-779.9,-141.4,627.0,-230.7,156.3,-900.9,73.2,-645.2,-2.4,-43.5,-60.6,-158.2,0,0,888,0,217,0,
0.4933,-108.0,-122.7,-100.3,-101.7,-264.7,-202.2,-86.0,-71.4,-93.3,-114.1,-1081.1,-783.5,-134.3,633.6,-232.8,158.4,-902.7,49.0,-653.2,-2.4,-46.2,-65.7,-160.3,0,0,894,0,218,0,
0.4967,-107.7,-120.0,-95.5,-102.0,-260.5,-201.0,-82.7,-70.5,-96.3,-110.2,-1081.4,-776.6,-132.8,632.7,-231.6,161.7,-897.9,63.1,-650.2,-1.8,-50.4,-63.0,-159.4,0,0,900,0,219,0,
0.5000,-103.5,-117.6,-92.8,-101.1,-259.9,-201.9,-79.1,-73.2,-90.0,-106.3,-1081.4,-772.4,-127.4,637.1,-229.5,163.5,-897.3,64.3,-651.7,-2.7,-46.8,-60.9,-160.3,0,0,906,0,220,0,
0.5033,-103.8,-116.4,-93.1,-102.0,-263.5,-207.3,-81.5,-72.0,-84.0,-111.1,-1088.5,-774.5,-129.5,638.3,-228.6,151.8,-894.0,64.9,-658.6,-2.1,-44.7,-64.8,-160.3,0,0,912,0,221,0,
0.5067,-104.4,-121.5,-98.2,-105.3,-268.6,-212.4,-87.2,-74.4,-90.3,-112.6,-1085.2,-779.0,-128.0,642.8,-226.2,159.3,-892.5,58.0,-658.9,-2.1,-47.7,-68.7,-169.6,0,0,918,0,222,0,
0.5100,-100.5,-117.9,-92.8,-102.0,-264.7,-204.9,-82.7,-69.3,-87.9,-111.1,-1086.4,-773.0,-130.7,644.0,-225.9,170.4,-897.3,65.5,-658.0,-2.1,-46.8,-64.8,-165.1,0,0,924,0,223,0,
0.5133,-99.9,-117.9,-91.6,-103.5,-263.5,-207.0,-84.2,-74.7,-91.5,-114.7,-1086.4,-776.3,-131.9,641.6,-226.5,156.3,-895.2,63.1,-659.5,-2.1,-53.1,-67.2,-169.0,0,0,930,0,224,0,
0.5167,-94.2,-109.8,-83.5,-93.3,-256.3,-197.7,-77.3,-67.8,-79.5,-101.2,-1076.3,-767.6,-128.9,641.6,-221.7,157.2,-893.4,76.2,-649.6,-2.4,-45.3,-63.0,-163.0,0,0,936,0,225,0,
0.5200,-90.6,-113.1,-89.8,-96.0,-254.8,-197.7,-74.9,-71.1,-87.9,-104.2,-1073.9,-771.5,-127.7,642.8,-217.5,178.5,-900.0,64.9,-652.9,-2.4,-49.2,-60.3,-167.5,0,0,942,0,226,0,
0.5233,-96.6,-113.4,-90.7,-93.0,-259.9,-199.5,-81.5,-72.0,-90.0,-106.3,-1077.8,-772.7,-132.2,635.0,-224.7,153.6,-897.6,67.3,-649.0,-2.1,-42.9,-66.6,-169.9,0,0,948,0,227,0,
0.5267,-97.5,-113.7,-94.9,-99.9,-259.6,-205.8,-80.6,-73.2,-92.1,-110.2,-1082.9,-775.7,-125.9,645.2,-231.6,172.8,-901.5,60.7,-646.3,-2.7,-50.4,-64.5,-168.4,0,0,954,0,228,0,
0.5300,-96.6,-104.1,-84.7,-89.4,-246.1,-191.7,-65.6,-57.9,-78.0,-103.0,-1066.7,-763.4,-128.6,638.3,-222.9,156.3,-901.2,64.6,-637.1,-2.1,-34.5,-45.0,-155.5,0,0,960,0,229,0,
0.5333,-103.2,-110.4,-90.1,-96.9,-255.7,-198.0,-73.7,-64.8,-88.8,-105.7,-1071.5,-771.2,-132.2,636.8,-225.0,147.6,-908.7,65.8,-650.5,-2.1,-38.1,-57.3,-163.0,0,0,966,0,230,0,
0.5367,-100.8,-102.0,-80.5,-86.7,-247.3,-192.6,-71.3,-59.7,-79.8,-96.7,-1069.7,-762.2,-129.2,638.3,-222.9,134.4,-907.2,76.8,-642.5,-2.4,-34.8,-56.4,-158.2,0,0,972,0,231,0,
0.5400,-105.0,-108.3,-86.8,-91.2,-250.0,-195.3,-73.7,-62.4,-89.1,-103.0,-1072.4,-770.6,-129.2,640.1,-225.3,156.0,-909.9,65.2,-638.0,-2.1,-41.4,-58.2,-160.9,0,0,978,0,232,0,
0.5433,-105.3,-111.9,-87.7,-92.4,-248.2,-196.5,-72.2,-62.4,-81.0,-102.7,-1070.9,-771.5,-129.8,641.0,-222.0,150.3,-913.8,64.3,-642.5,-2.4,-38.4,-60.3,-159.4,0,0,984,0,233,0,
0.5467,-103.2,-110.4,-89.8,-92.1,-252.4,-197.7,-73.1,-64.5,-82.5,-101.5,-1070.0,-771.2,-128.9,640.4,-224.1,169.8,-910.8,68.2,-645.5,-2.1,-47.7,-63.9,-160.9,0,0,990,0,234,0,
0.5500,-104.1,-110.4,-93.7,-97.5,-247.3,-199.2,-74.6,-70.2,-87.6,-108.1,-1076.0,-780.2,-129.2,641.0,-222.9,145.8,-911.7,62.5,-646.6,-2.4,-48.9,-63.0,-158.5,0,0,996,0,235,0,
0.5533,-104.7,-111.6,-90.4,-94.2,-248.8,-202.2,-73.7,-67.8,-87.3,-105.4,-1070.9,-773.6,-129.8,638.3,-225.0,135.0,-912.6,65.8,-638.3,-2.4,-41.1,-61.8,-155.2,0,0,1002,0,236,0,
0.5567,-102.3,-111.3,-92.5,-90.9,-243.1,-195.3,-71.9,-63.0,-94.8,-106.0,-1072.7,-776.6,-125.9,641.6,-222.9,154.8,-918.6,64.6,-634.1,-2.4,-43.5,-63.3,-149.5,0,0,1008,0,237,0,
0.5600,-101.1,-110.4,-94.3,-94.8,-249.4,-199.2,-72.5,-62.4,-89.7,-109.9,-1078.4,-769.1,-122.0,641.6,-220.2,155.1,-919.2,64.0,-638.6,-2.1,-42.6,-62.1,-156.4,0,0,1014,0,238,0,
0.5633,-97.8,-106.8,-88.9,-90.0,-239.2,-192.3,-70.1,-58.8,-82.8,-99.7,-1066.4,-764.3,-118.4,642.5,-226.5,152.4,-926.4,72.0,-630.5,-2.1,-34.8,-59.1,-150.1,0,0,1020,0,239,0,
0.5667,-88.8,-95.7,-81.4,-82.8,-240.1,-187.8,-63.0,-52.5,-69.0,-96.7,-1056.8,-755.9,-114.8,650.3,-217.5,164.7,-926.7,74.7,-621.3,-2.1,-26.1,-50.7,-147.1,0,0,1026,0,240,0,
0.5700,-98.1,-106.5,-93.1,-95.4,-250.0,-198.9,-75.2,-66.9,-81.9,-109.9,-1070.3,-766.4,-126.2,640.4,-224.4,157.5,-930.6,61.9,-633.8,-2.1,-44.4,-64.2,-158.8,0,0,1032,0,241,0,
0.5733,-97.8,-105.0,-93.1,-94.2,-248.2,-200.1,-72.8,-67.5,-84.0,-104.8,-1067.6,-759.2,-120.5,644.9,-219.0,156.6,-936.0,66.1,-636.8,-1.8,-39.0,-62.1,-158.5,0,0,1038,0,242,0,
0.5767,-99.9,-108.0,-94.9,-96.0,-245.5,-196.2,-72.2,-67.5,-82.8,-108.7,-1073.0,-759.2,-119.6,646.7,-216.3,149.7,-941.7,64.0,-639.8,-1.8,-39.0,-54.0,-157.0,0,0,1044,0,243,0,
0.5800,-103.8,-112.5,-99.4,-100.8,-254.2,-197.1,-73.1,-69.9,-84.9,-112.6,-1074.8,-761.6,-126.5,644.6,-216.9,154.5,-946.2,56.2,-640.7,-2.1,-40.2,-53.7,-157.3,0,0,1050,0,244,0,
0.5833,-102.6,-107.1,-93.7,-99.0,-254.5,-198.6,-74.6,-67.8,-79.8,-109.9,-1072.1,-759.8,-130.1,640.7,-219.6,156.0,-942.9,65.2,-644.0,-2.4,-46.5,-54.9,-159.4,0,0,1056,0,245,0,
0.5867,-104.4,-109.2,-97.6,-97.2,-253.0,-193.5,-69.8,-65.7,-75.9,-109.6,-1073.3,-766.1,-125.6,649.4,-215.7,156.6,-947.7,66.1,-656.2,-2.4,-44.4,-55.2,-156.4,0,0,1062,0,246,0,
0.5900,-104.4,-111.9,-99.1,-99.3,-254.8,-196.5,-72.5,-69.6,-86.1,-115.0,-1080.8,-773.0,-123.5,646.1,-222.0,155.1,-951.6,57.7,-658.9,-1.8,-42.6,-60.0,-159.7,0,0,1068,0,247,0,
0.5933,-102.0,-114.9,-102.1,-105.6,-260.5,-201.0,-73.4,-74.4,-89.7,-117.7,-1078.7,-772.4,-118.4,654.8,-214.8,159.6,-961.8,52.3,-670.5,-2.4,-53.4,-59.1,-162.1,0,0,1074,0,248,0,
0.5967,-102.6,-112.2,-98.8,-100.5,-259.3,-198.0,-73.1,-71.4,-93.0,-117.4,-1085.5,-770.0,-123.2,648.5,-218.1,160.5,-964.5,59.5,-664.0,-2.4,-41.7,-54.6,-155.8,0,0,1080,0,249,0,
0.6000,-96.9,-106.5,-92.2,-96.9,-253.6,-191.4,-63.8,-65.1,-80.7,-107.8,-1073.9,-764.3,-117.2,659.6,-210.0,160.8,-970.2,67.3,-649.0,-2.1,-35.7,-45.0,-149.2,0,0,1086,0,250,0,
0.6033,-104.4,-114.0,-106.0,-107.1,-262.0,-204.9,-73.1,-76.5,-83.1,-118.3,-1080.2,-768.5,-118.7,655.7,-215.1,166.8,-973.8,52.3,-655.6,-2.1,-46.8,-60.9,-160.0,0,0,1092,0,251,0,
0.6067,-108.0,-120.3,-109.0,-110.4,-265.3,-207.9,-77.3,-78.9,-93.3,-124.0,-1088.2,-779.9,-124.1,656.0,-216.9,174.3,-981.0,47.8,-669.3,-2.4,-54.9,-69.6,-163.9,0,0,1098,0,252,0,
0.6100,-108.6,-116.1,-101.2,-102.6,-258.1,-201.6,-73.1,-73.2,-82.8,-116.2,-1080.5,-778.4,-131.0,642.5,-213.0,161.4,-985.5,55.0,-666.1,-1.8,-48.6,-65.4,-154.9,0,0,1104,0,253,0,
0.6133,-104.4,-118.5,-99.4,-103.2,-259.9,-196.8,-74.9,-72.6,-92.4,-117.4,-1080.8,-778.4,-125.0,651.2,-210.3,165.0,-990.3,52.6,-667.9,-2.1,-42.6,-63.6,-149.5,0,0,1110,0,254,0,
0.6167,-104.1,-111.6,-97.0,-95.7,-255.7,-193.8,-72.8,-65.7,-90.0,-114.1,-1079.0,-779.0,-119.6,656.3,-213.3,146.7,-996.3,60.1,-669.3,-1.8,-41.4,-67.5,-151.9,0,0,1116,0,255,0,
0.6200,-105.3,-109.2,-95.5,-94.2,-247.6,-189.9,-67.4,-63.9,-81.6,-113.8,-1076.9,-774.8,-126.8,646.1,-219.6,184.5,-1004.4,58.6,-663.4,-2.4,-46.5,-57.9,-151.3,0,0,1122,0,0,0,
0.6233,-105.0,-110.4,-95.2,-93.9,-248.5,-192.3,-69.2,-66.6,-80.1,-111.4,-1077.2,-771.8,-121.1,650.0,-218.1,172.8,-1004.7,57.7,-661.3,-2.1,-40.5,-71.7,-155.2,0,0,1128,0,1,0,
0.6267,-105.3,-105.9,-86.8,-86.7,-245.2,-187.8,-65.6,-64.8,-71.7,-108.4,-1072.7,-761.9,-126.5,642.8,-210.9,148.2,-1014.6,62.2,-656.5,-2.4,-38.1,-66.3,-148.0,0,0,1134,0,2,0,
0.6300,-104.4,-109.5,-90.7,-89.4,-248.2,-195.6,-69.2,-69.0,-73.2,-104.8,-1073.0,-765.5,-124.1,649.4,-212.1,154.8,-1017.6,63.4,-666.7,-2.1,-39.6,-73.2,-156.4,0,0,1140,0,3,0,
0.6333,-108.9,-114.0,-92.2,-89.4,-247.0,-193.5,-72.8,-69.9,-81.3,-106.3,-1070.3,-766.1,-134.9,639.2,-218.4,156.0,-1025.1,56.5,-671.1,-2.1,-45.0,-69.6,-154.6,0,0,1146,0,4,0,
0.6367,-105.0,-114.0,-88.9,-87.9,-247.9,-193.8,-71.0,-69.0,-88.2,-106.9,-1072.7,-770.3,-132.8,642.5,-216.0,142.8,-1032.6,62.8,-670.5,-2.1,-42.3,-59.7,-160.3,0,0,1152,0,5,0,
0.6400,-104.1,-111.9,-87.1,-85.2,-247.6,-192.0,-68.3,-68.1,-81.9,-106.9,-1076.9,-775.7,-134.9,638.0,-215.4,151.2,-1036.8,58.0,-668.7,-2.4,-43.5,-60.9,-158.8,0,0,1158,0,6,0,
0.6433,-103.2,-109.8,-82.3,-82.2,-241.9,-191.1,-63.8,-66.0,-80.7,-100.3,-1069.1,-772.1,-133.7,640.7,-214.2,159.6,-1037.1,66.4,-657.1,-2.4,-45.6,-61.2,-159.1,0,0,1164,0,7,0,
0.6467,-104.1,-111.0,-87.1,-89.4,-244.3,-190.2,-65.3,-65.1,-80.7,-106.6,-1078.7,-774.2,-137.5,639.2,-217.2,159.6,-1039.8,61.3,-665.5,-2.7,-55.2,-57.9,-156.4,0,0,1170,0,8,0,
0.6500,-99.9,-109.5,-84.4,-86.7,-244.0,-186.6,-61.5,-66.3,-81.0,-102.4,-1072.4,-769.7,-135.2,647.6,-211.5,148.2,-1045.5,62.2,-664.3,-2.1,-45.9,-49.2,-157.9,0,0,1176,0,9,0,
0.6533,-99.3,-106.5,-82.3,-83.7,-241.9,-187.8,-65.6,-64.8,-84.3,-100.3,-1068.5,-768.2,-133.1,644.0,-213.0,158.7,-1049.1,64.3,-660.1,-2.4,-39.0,-57.6,-158.8,0,0,1182,0,10,0,
0.6567,-99.6,-104.1,-79.0,-79.8,-237.7,-188.4,-63.0,-63.6,-86.4,-98.5,-1067.0,-766.7,-131.9,644.6,-214.5,162.9,-1047.0,67.9,-665.5,-2.1,-39.3,-51.6,-155.8,0,0,1188,0,11,0,
0.6600,-93.9,-99.3,-79.6,-80.7,-241.0,-187.8,-61.5,-61.5,-76.5,-95.3,-1066.1,-755.9,-124.4,652.1,-209.7,165.6,-1057.2,70.3,-664.6,-2.4,-42.9,-54.3,-157.6,0,0,1194,0,12,0,
0.6633,-97.8,-108.0,-85.9,-85.2,-242.5,-189.3,-65.0,-66.9,-80.4,-98.5,-1067.3,-767.3,-130.1,648.8,-209.4,161.1,-1058.4,65.5,-660.1,-2.1,-40.2,-54.6,-155.8,0,0,1200,0,13,0,
0.6667,-97.8,-102.6,-81.1,-85.5,-247.0,-189.9,-63.2,-64.2,-76.2,-102.4,-1075.1,-760.4,-128.9,641.3,-214.5,164.1,-1061.7,67.3,-659.8,-2.1,-44.1,-56.7,-154.9,0,0,1206,0,14,0,
0.6700,-101.4,-108.9,-82.3,-88.8,-247.0,-192.6,-65.3,-66.0,-82.8,-100.0,-1072.4,-771.8,-137.5,637.4,-216.9,162.9,-1059.6,70.3,-657.4,-2.1,-45.6,-60.3,-154.6,0,0,1212,0,15,0,
0.6733,-98.1,-105.9,-86.2,-85.8,-247.3,-193.5,-61.5,-63.9,-81.3,-103.9,-1067.6,-764.9,-135.2,642.5,-212.7,174.9,-1058.7,61.6,-652.9,-2.4,-40.8,-59.7,-155.2,0,0,1218,0,16,0,
0.6767,-102.6,-113.1,-89.2,-92.7,-250.3,-198.9,-66.2,-67.8,-84.9,-109.3,-1072.7,-777.2,-138.1,642.8,-215.7,182.4,-1051.2,57.1,-658.0,-2.4,-49.5,-64.8,-158.5,0,0,1224,0,17,0,
0.6800,-103.5,-111.3,-90.7,-92.7,-252.4,-200.7,-66.2,-67.2,-87.3,-110.2,-1081.7,-774.2,-132.8,649.1,-210.6,157.8,-1042.5,56.8,-666.4,-2.1,-50.4,-66.6,-157.9,0,0,1230,0,18,0,
0.6833,-101.1,-109.5,-86.2,-84.9,-243.4,-189.6,-57.6,-59.7,-83.4,-100.3,-1071.5,-774.5,-137.5,639.5,-210.3,156.6,-1030.5,61.3,-658.3,-2.1,-48.9,-57.9,-147.1,0,0,1236,0,19,0,
0.6867,-99.6,-108.0,-81.1,-87.0,-249.1,-190.2,-62.1,-60.6,-77.4,-102.4,-1073.6,-763.4,-140.8,644.0,-216.0,164.1,-1025.4,64.9,-661.9,-2.1,-42.9,-64.2,-154.0,0,0,1242,0,20,0,
0.6900,-100.8,-108.3,-82.6,-89.1,-250.0,-194.7,-64.7,-63.3,-81.6,-105.1,-1073.9,-761.9,-137.8,644.3,-212.4,163.8,-1010.7,61.9,-667.3,-2.4,-48.3,-66.3,-157.9,0,0,1248,0,21,0,
0.6933,-100.5,-106.5,-80.8,-87.3,-247.3,-193.2,-67.1,-63.9,-86.7,-102.7,-1073.6,-767.0,-136.4,643.7,-213.6,177.9,-995.7,65.8,-660.7,-2.4,-48.9,-70.5,-153.7,0,0,1254,0,22,0,
0.6967,-96.0,-106.2,-82.9,-89.1,-249.4,-190.8,-67.4,-63.9,-87.6,-110.2,-1081.1,-767.3,-134.3,648.5,-215.1,165.3,-985.2,57.7,-669.6,-2.1,-48.3,-66.9,-156.4,0,0,1260,0,23,0,
0.7000,-97.8,-109.8,-89.8,-92.7,-246.7,-192.3,-65.9,-62.7,-107.7,-125.2,-1090.6,-776.3,-138.4,641.3,-217.8,171.3,-979.5,38.9,-678.6,-2.4,-66.6,-66.9,-157.9,0,0,1266,0,24,0,
0.7033,-99.6,-113.7,-97.6,-97.8,-257.5,-199.2,-71.0,-67.5,-107.1,-145.0,-1111.0,-779.6,-142.3,643.1,-220.8,159.0,-972.0,23.9,-692.3,-2.4,-70.5,-68.1,-163.3,0,0,1272,0,25,0,
0.7067,-101.7,-107.1,-87.4,-90.9,-249.4,-191.1,-68.6,-71.7,-81.3,-116.2,-1087.3,-770.0,-141.1,642.5,-214.8,163.2,-960.3,59.2,-670.5,-2.4,-46.2,-60.3,-149.5,0,0,1278,0,26,0,
0.7100,-103.2,-101.7,-76.9,-84.3,-244.0,-189.9,-65.3,-71.7,-67.2,-81.5,-1054.8,-758.6,-133.7,647.9,-212.1,164.1,-944.1,89.4,-652.3,-2.1,-26.4,-54.3,-143.2,0,0,1284,0,27,0,
0.7133,-103.8,-105.6,-83.2,-86.1,-248.8,-190.8,-67.4,-70.5,-83.7,-96.2,-1068.2,-767.0,-136.4,649.4,-209.1,168.0,-939.0,73.8,-662.8,-2.1,-36.6,-55.5,-148.0,0,0,1290,0,28,0,
0.7167,-101.4,-105.9,-83.2,-87.9,-253.0,-193.8,-68.6,-67.5,-72.0,-103.6,-1080.5,-764.3,-134.3,644.3,-212.7,192.0,-934.8,70.0,-671.1,-2.4,-38.7,-54.9,-153.4,0,0,1296,0,29,0,
0.7200,-102.9,-108.0,-89.2,-91.2,-256.6,-199.8,-76.7,-73.2,-69.9,-106.6,-1088.8,-763.7,-133.4,647.3,-216.0,192.0,-929.1,65.5,-681.6,-2.4,-45.9,-61.8,-156.7,0,0,1302,0,30,0,
0.7233,-99.9,-107.7,-89.8,-94.8,-256.3,-197.7,-73.4,-68.1,-77.7,-126.1,-1107.7,-767.9,-138.1,639.8,-216.6,139.8,-921.3,49.0,-691.7,-2.1,-47.4,-56.1,-156.1,0,0,1308,0,31,0,
0.7267,-93.3,-102.6,-85.0,-89.7,-251.8,-192.6,-65.9,-62.4,-72.0,-121.0,-1100.8,-758.9,-127.7,652.1,-206.7,159.0,-920.4,55.9,-685.2,-2.1,-36.6,-46.8,-148.9,0,0,1314,0,32,0,
0.7300,-97.5,-102.3,-86.5,-90.9,-252.7,-197.1,-69.2,-69.0,-66.0,-112.0,-1091.8,-753.8,-133.7,640.1,-211.8,157.8,-915.0,62.8,-678.6,-2.4,-36.3,-52.2,-149.2,0,0,1320,0,33,0,
0.7333,-98.4,-100.5,-87.7,-90.6,-254.8,-194.7,-68.3,-64.5,-66.3,-114.7,-1089.1,-754.4,-126.2,652.7,-205.5,167.1,-911.4,64.0,-680.1,-2.1,-28.5,-54.0,-143.2,0,0,1326,0,34,0,
0.7367,-98.1,-102.3,-92.5,-89.1,-250.3,-192.9,-68.6,-65.1,-67.5,-118.6,-1089.1,-758.0,-126.8,652.4,-209.1,183.3,-910.2,57.4,-672.9,-1.8,-27.3,-53.1,-139.7,0,0,1332,0,35,0,
0.7400,-94.8,-98.7,-79.9,-80.1,-241.3,-188.7,-64.7,-60.0,-60.6,-97.9,-1071.2,-751.1,-124.7,651.8,-204.9,220.5,-914.1,77.4,-662.2,-2.4,-14.1,-47.1,-139.1,0,0,1338,0,36,0,
0.7433,-94.5,-98.7,-83.5,-82.8,-244.9,-191.1,-69.2,-61.8,-56.4,-107.8,-1081.7,-757.4,-124.7,650.3,-206.1,140.1,-914.4,68.8,-662.8,-2.4,-24.0,-50.4,-140.8,0,0,1344,0,37,0,
0.7467,-91.8,-95.1,-84.4,-87.0,-246.7,-190.8,-65.6,-65.1,-56.4,-111.1,-1088.2,-757.4,-121.4,650.6,-202.2,156.9,-908.4,66.1,-670.8,-2.1,-13.5,-45.0,-139.1,0,0,1350,0,38,0,
0.7500,-93.9,-98.4,-84.1,-86.7,-244.3,-185.7,-59.4,-63.0,-59.1,-110.2,-1083.2,-761.9,-124.4,648.8,-205.5,174.0,-909.9,64.9,-664.0,-2.1,-21.0,-42.3,-135.8,0,0,1356,0,39,0,
0.7533,-92.4,-93.0,-83.5,-87.0,-247.0,-187.5,-60.6,-64.2,-52.8,-115.0,-1091.2,-754.7,-117.8,649.7,-203.4,158.1,-909.6,66.1,-667.9,-2.1,-22.2,-44.4,-134.3,0,0,1362,0,40,0,
0.7567,-99.9,-96.6,-84.1,-89.1,-243.7,-186.3,-60.0,-63.3,-56.7,-112.9,-1081.7,-756.2,-120.8,650.3,-202.2,166.2,-907.2,62.5,-654.7,-2.4,-19.8,-48.6,-131.3,0,0,1368,0,41,0,
0.7600,-101.7,-96.6,-84.1,-88.8,-248.8,-188.7,-64.4,-64.2,-53.7,-113.8,-1084.6,-749.9,-123.2,650.0,-197.7,165.0,-904.2,63.4,-662.8,-2.1,-17.1,-52.2,-136.4,0,0,1374,0,42,0,
0.7633,-93.6,-91.5,-79.3,-87.3,-242.8,-185.4,-63.5,-62.1,-46.8,-110.2,-1086.1,-751.4,-120.2,648.5,-200.1,167.4,-909.9,64.9,-666.7,-1.8,-19.8,-52.5,-130.7,0,0,1380,0,43,0,
0.7667,-92.7,-92.1,-79.6,-84.9,-245.2,-186.6,-63.5,-59.7,-50.7,-110.5,-1079.0,-749.6,-119.9,657.8,-198.0,178.2,-908.4,69.1,-664.0,-2.4,-13.2,-51.0,-132.5,0,0,1386,0,44,0,
0.7700,-93.3,-93.6,-79.6,-85.5,-240.7,-188.7,-62.4,-61.2,-56.4,-111.7,-1083.2,-750.5,-122.0,654.2,-196.2,178.8,-910.2,62.8,-665.8,-1.8,-20.7,-53.1,-131.3,0,0,1392,0,45,0,
0.7733,-95.1,-92.4,-77.8,-81.3,-234.1,-181.5,-60.3,-58.2,-57.6,-112.0,-1082.0,-748.7,-122.6,650.6,-198.3,161.1,-903.9,67.0,-662.2,-2.4,-10.5,-45.6,-127.7,0,0,1398,0,46,0,
0.7767,-95.1,-87.6,-67.1,-81.0,-230.8,-182.4,-58.2,-56.4,-54.0,-109.3,-1076.6,-743.9,-127.1,648.8,-199.5,166.8,-910.2,72.3,-656.5,-2.1,-10.5,-46.2,-128.6,0,0,1404,0,47,0,
0.7800,-96.6,-94.8,-77.8,-84.9,-238.0,-185.1,-61.5,-61.5,-57.9,-114.1,-1082.3,-744.8,-124.4,648.2,-199.2,165.9,-908.1,67.9,-663.7,-2.4,-18.3,-45.6,-133.4,0,0,1410,0,48,0,
0.7833,-93.6,-95.7,-83.2,-88.8,-237.4,-186.0,-60.3,-61.2,-56.7,-120.4,-1091.5,-750.5,-118.7,657.8,-196.5,172.2,-908.1,61.9,-674.7,-2.1,-21.9,-43.8,-134.0,0,0,1416,0,49,0,
0.7867,-93.6,-93.0,-79.0,-83.7,-231.7,-178.8,-56.1,-54.3,-53.4,-115.6,-1082.9,-747.5,-122.3,644.9,-200.4,173.7,-905.7,59.8,-667.9,-2.4,-11.4,-42.9,-127.7,0,0,1422,0,50,0,
0.7900,-96.3,-101.7,-87.7,-92.7,-237.4,-184.8,-62.7,-59.4,-60.9,-123.1,-1093.0,-754.4,-123.2,650.9,-204.0,166.5,-911.1,55.0,-677.1,-1.8,-21.9,-42.6,-138.5,0,0,1428,0,51,0,
0.7933,-96.6,-99.3,-88.0,-94.2,-242.8,-188.7,-58.2,-62.4,-62.1,-121.9,-1086.7,-749.9,-125.3,654.8,-204.0,158.1,-912.3,56.2,-672.6,-1.8,-24.9,-42.0,-140.0,0,0,1434,0,52,0,
0.7967,-98.7,-102.9,-93.4,-101.1,-250.6,-197.7,-64.1,-66.0,-75.9,-130.0,-1093.3,-753.5,-134.0,644.6,-214.5,167.1,-910.5,52.3,-681.6,-2.4,-30.3,-46.8,-146.8,0,0,1440,0,53,0,
0.8000,-94.5,-103.2,-97.3,-102.3,-252.1,-193.2,-60.3,-64.8,-67.8,-128.5,-1092.7,-754.7,-127.7,656.9,-201.9,177.3,-908.7,52.0,-671.4,-2.4,-27.3,-40.2,-140.8,0,0,1446,0,54,0,
0.8033,-96.3,-104.7,-101.2,-107.4,-261.1,-199.8,-68.6,-68.4,-68.4,-136.9,-1102.3,-759.8,-129.2,647.0,-208.8,171.3,-909.0,47.8,-680.7,-2.4,-33.0,-57.3,-150.7,0,0,1452,0,55,0,
0.8067,-93.0,-100.8,-94.0,-103.2,-256.9,-198.3,-67.1,-67.8,-66.6,-132.4,-1098.1,-754.7,-127.1,649.1,-205.2,192.9,-909.6,55.0,-675.6,-2.1,-33.0,-58.8,-154.3,0,0,1458,0,56,0,
0.8100,-97.2,-105.0,-96.7,-108.6,-262.9,-202.5,-72.2,-70.8,-73.2,-135.4,-1109.8,-764.3,-130.4,645.5,-210.6,171.9,-908.7,46.9,-687.3,-2.4,-33.6,-62.4,-156.7,0,0,1464,0,57,0,
0.8133,-97.5,-102.3,-89.2,-101.1,-256.6,-198.0,-71.9,-66.6,-68.7,-129.1,-1099.6,-760.4,-129.5,644.0,-205.8,182.4,-907.5,50.8,-681.0,-2.4,-38.7,-56.7,-156.1,0,0,1470,0,58,0,
0.8167,-102.0,-105.9,-97.0,-107.7,-259.0,-198.6,-73.4,-72.0,-72.6,-133.9,-1103.2,-766.1,-128.6,644.3,-204.9,177.0,-906.3,44.8,-689.7,-2.7,-33.9,-59.1,-159.4,0,0,1476,0,59,0,
0.8200,-101.4,-104.7,-96.7,-108.0,-260.5,-203.4,-70.7,-71.7,-73.8,-133.9,-1105.0,-763.7,-129.8,646.1,-201.0,165.6,-903.0,50.8,-693.8,-1.8,-36.0,-50.1,-157.3,0,0,1482,0,60,0,
0.8233,-102.3,-105.9,-94.3,-104.4,-256.0,-199.5,-71.3,-72.0,-64.2,-133.0,-1110.4,-758.0,-127.4,641.3,-203.4,149.4,-906.0,52.9,-695.0,-2.1,-39.0,-52.8,-157.0,0,0,1488,0,61,0,
0.8267,-97.8,-105.6,-100.3,-108.3,-253.6,-199.5,-70.7,-71.4,-66.9,-130.6,-1107.1,-759.8,-127.4,640.7,-205.2,176.7,-907.2,49.6,-688.5,-2.1,-38.7,-54.9,-156.7,0,0,1494,0,62,0,
0.8300,-97.8,-105.0,-99.4,-105.3,-256.0,-202.8,-69.5,-72.6,-69.9,-133.6,-1112.5,-759.5,-128.0,644.9,-203.7,172.5,-912.0,45.7,-687.9,-3.0,-37.8,-51.9,-152.5,0,0,1500,0,63,0,
0.8333,-93.0,-97.5,-95.2,-102.0,-255.1,-201.3,-65.9,-69.3,-66.0,-127.9,-1103.5,-749.6,-124.4,648.8,-197.7,176.7,-913.2,51.1,-681.0,-2.1,-34.5,-50.1,-146.8,0,0,1506,0,64,0,
0.8367,-97.5,-99.6,-96.1,-104.7,-257.5,-200.4,-67.4,-71.1,-71.4,-130.6,-1105.0,-756.5,-130.4,646.1,-204.3,159.3,-914.1,50.8,-689.1,-2.4,-38.7,-47.7,-151.9,0,0,1512,0,65,0,
0.8400,-101.4,-102.6,-99.4,-108.0,-261.4,-204.9,-71.6,-75.9,-72.9,-136.6,-1105.9,-755.9,-130.4,644.0,-208.5,182.7,-918.0,42.2,-692.3,-1.8,-35.4,-51.3,-153.7,0,0,1518,0,66,0,
0.8433,-94.5,-99.9,-92.2,-102.0,-252.1,-198.0,-63.8,-70.2,-69.3,-129.7,-1104.1,-750.5,-126.8,645.2,-204.0,152.4,-910.2,52.6,-687.9,-2.1,-34.5,-41.4,-145.0,0,0,1524,0,67,0,
0.8467,-93.0,-100.5,-92.5,-100.5,-254.2,-193.8,-61.8,-68.1,-64.8,-130.0,-1101.1,-752.3,-124.4,650.0,-204.6,163.5,-911.1,55.6,-691.4,-2.1,-24.9,-36.6,-137.9,0,0,1530,0,68,0,
0.8500,-98.4,-103.2,-97.6,-101.1,-252.1,-196.8,-65.3,-73.2,-69.0,-133.0,-1102.3,-755.9,-130.1,650.3,-206.1,156.0,-905.4,47.5,-692.3,-2.1,-29.1,-47.1,-140.3,0,0,1536,0,69,0,
0.8533,-93.6,-99.3,-88.6,-96.9,-247.6,-195.3,-64.1,-66.0,-64.2,-118.6,-1094.5,-753.8,-125.0,652.7,-202.5,163.8,-901.2,58.9,-690.0,-2.1,-30.9,-50.7,-140.3,0,0,1542,0,70,0,
0.8567,-93.3,-96.9,-91.0,-95.1,-244.3,-194.1,-63.2,-66.0,-63.9,-120.7,-1095.1,-753.2,-119.0,647.3,-203.4,165.9,-901.8,55.9,-690.3,-2.1,-29.4,-48.9,-142.3,0,0,1548,0,71,0,
0.8600,-94.8,-99.0,-90.1,-93.3,-245.8,-193.2,-65.9,-65.1,-61.2,-120.1,-1086.4,-756.2,-122.6,650.9,-205.5,168.9,-902.4,57.4,-681.3,-2.1,-22.8,-46.8,-141.7,0,0,1554,0,72,0,
0.8633,-92.4,-91.8,-88.3,-93.6,-246.1,-192.6,-63.2,-65.1,-50.4,-117.7,-1090.9,-744.5,-125.0,650.0,-207.6,179.4,-904.5,60.1,-684.3,-2.4,-25.2,-45.3,-145.9,0,0,1560,0,73,0,
0.8667,-95.1,-96.0,-90.4,-95.1,-250.0,-195.9,-65.0,-63.0,-63.0,-120.1,-1098.7,-756.8,-118.7,648.5,-209.4,178.8,-905.4,55.0,-690.0,-2.4,-28.2,-48.0,-145.3,0,0,1566,0,74,0,
0.8700,-92.7,-93.9,-87.7,-95.7,-250.3,-195.3,-63.2,-63.0,-62.1,-121.0,-1096.6,-748.7,-114.2,653.9,-210.9,190.5,-913.5,54.1,-690.0,-1.8,-27.3,-47.4,-146.8,0,0,1572,0,75,0,
0.8733,-94.5,-93.0,-86.2,-93.3,-247.3,-192.6,-64.4,-60.6,-59.1,-116.8,-1096.0,-743.3,-115.7,650.6,-208.5,150.0,-907.2,60.1,-685.2,-2.1,-30.0,-47.1,-146.2,0,0,1578,0,76,0,
0.8767,-95.7,-90.6,-84.1,-88.5,-246.4,-191.4,-64.1,-63.9,-60.6,-110.8,-1085.2,-747.8,-120.2,643.7,-210.9,162.3,-904.8,64.6,-683.7,-2.4,-20.1,-47.7,-142.0,0,0,1584,0,77,0,
0.8800,-96.9,-99.0,-90.4,-97.8,-252.7,-194.4,-67.1,-65.7,-66.3,-122.8,-1095.7,-755.6,-120.5,644.0,-212.7,169.5,-905.4,56.2,-688.2,-2.1,-30.6,-53.4,-149.5,0,0,1590,0,78,0,
0.8833,-93.0,-94.8,-84.1,-88.8,-246.1,-185.7,-60.9,-61.5,-58.5,-116.5,-1092.1,-749.0,-117.2,643.1,-211.5,168.0,-903.6,63.4,-676.5,-2.1,-18.3,-52.8,-147.1,0,0,1596,0,79,0,
0.8867,-95.4,-93.6,-84.4,-90.9,-246.4,-190.8,-64.1,-65.1,-59.1,-116.8,-1088.2,-747.5,-124.4,642.2,-212.4,167.4,-904.8,62.5,-677.1,-2.4,-26.7,-57.0,-148.0,0,0,1602,0,80,0,
0.8900,-85.8,-86.1,-79.3,-85.5,-239.2,-186.3,-59.7,-60.9,-62.1,-115.6,-1093.9,-744.2,-111.8,653.9,-208.5,177.6,-902.4,67.6,-688.5,-2.4,-23.4,-51.0,-145.9,0,0,1608,0,81,0,
0.8933,-96.9,-95.4,-88.3,-96.3,-253.6,-197.4,-70.7,-69.0,-68.1,-126.7,-1098.4,-750.2,-129.5,633.0,-219.9,183.0,-898.2,58.0,-691.1,-2.1,-37.2,-54.9,-160.3,0,0,1614,0,82,0,
0.8967,-87.9,-90.6,-81.4,-89.4,-247.9,-195.9,-68.9,-65.4,-66.9,-118.9,-1090.6,-748.4,-125.9,636.2,-214.5,189.3,-904.2,61.6,-681.0,-2.1,-30.3,-58.2,-158.5,0,0,1620,0,83,0,
0.9000,-89.7,-91.5,-80.5,-87.9,-248.2,-196.5,-70.7,-62.7,-71.1,-118.3,-1093.6,-748.4,-126.5,637.4,-210.6,162.6,-903.9,62.5,-678.9,-2.1,-30.0,-56.1,-159.4,0,0,1626,0,84,0,
0.9033,-90.0,-87.3,-76.0,-84.9,-241.3,-193.8,-66.8,-58.5,-54.6,-112.9,-1088.5,-740.6,-122.6,643.1,-210.3,174.0,-901.5,65.5,-666.7,-2.4,-24.6,-55.2,-149.8,0,0,1632,0,85,0,
0.9067,-90.3,-90.3,-74.8,-89.4,-245.2,-198.3,-64.1,-58.2,-56.1,-113.5,-1088.2,-739.1,-123.5,642.5,-206.4,159.9,-905.1,66.7,-677.4,-2.4,-27.9,-57.0,-150.1,0,0,1638,0,86,0,
0.9100,-87.6,-86.1,-74.2,-83.4,-243.4,-193.2,-63.5,-54.9,-64.8,-108.7,-1086.7,-738.5,-118.1,641.0,-205.8,174.6,-897.9,69.7,-675.6,-2.4,-17.7,-53.1,-148.9,0,0,1644,0,87,0,
0.9133,-90.6,-91.5,-75.4,-85.2,-246.1,-194.7,-67.1,-58.2,-69.0,-110.8,-1085.8,-747.5,-122.9,641.9,-210.3,175.5,-901.2,68.8,-678.6,-2.4,-19.5,-52.2,-149.5,0,0,1650,0,88,0,
0.9167,-96.6,-87.9,-75.4,-84.0,-243.4,-192.0,-66.8,-58.8,-56.4,-109.3,-1085.5,-739.1,-125.9,638.3,-210.9,168.9,-898.8,71.2,-676.8,-2.4,-26.7,-53.7,-150.4,0,0,1656,0,89,0,
0.9200,-93.6,-92.4,-76.0,-88.2,-249.4,-195.0,-66.8,-63.0,-59.7,-110.8,-1087.9,-742.4,-121.4,646.4,-204.3,164.7,-896.1,70.6,-680.7,-2.4,-26.7,-47.1,-148.6,0,0,1662,0,90,0,
0.9233,-99.0,-95.7,-82.9,-96.3,-249.4,-199.8,-70.4,-67.2,-57.9,-114.7,-1094.2,-748.4,-128.0,639.5,-213.3,165.0,-902.7,62.5,-680.7,-2.1,-21.3,-58.2,-146.8,0,0,1668,0,91,0,
0.9267,-93.0,-96.3,-83.2,-96.6,-256.0,-200.4,-69.5,-69.6,-68.7,-119.5,-1099.6,-754.7,-126.2,651.2,-207.9,168.6,-905.1,57.1,-682.5,-2.7,-34.2,-61.8,-149.5,0,0,1674,0,92,0,
0.9300,-91.2,-93.0,-84.7,-93.9,-247.3,-197.4,-68.9,-67.2,-60.6,-115.0,-1092.7,-752.6,-131.3,641.9,-217.8,170.4,-901.8,61.9,-677.4,-2.1,-30.3,-60.3,-145.0,0,0,1680,0,93,0,
0.9333,-87.0,-90.0,-81.4,-93.6,-247.6,-200.4,-67.7,-67.8,-62.7,-112.9,-1092.7,-746.3,-128.3,644.6,-217.5,170.1,-905.4,64.3,-673.5,-2.1,-30.6,-55.8,-148.3,0,0,1686,0,94,0,
0.9367,-91.2,-94.5,-83.2,-93.9,-242.8,-202.5,-66.8,-67.2,-61.2,-117.4,-1099.0,-746.6,-130.1,639.8,-217.8,178.8,-898.8,61.9,-677.1,-2.1,-32.1,-59.4,-147.1,0,0,1692,0,95,0,
0.9400,-90.3,-96.9,-83.2,-92.7,-240.7,-198.0,-61.2,-69.9,-62.7,-115.3,-1092.7,-748.7,-127.7,647.0,-214.5,186.6,-898.2,60.1,-675.6,-2.4,-19.5,-50.4,-142.0,0,0,1698,0,96,0,
0.9433,-81.9,-89.1,-73.6,-85.2,-231.7,-194.4,-60.0,-60.6,-51.0,-106.9,-1084.3,-738.8,-122.6,648.2,-219.9,169.5,-897.3,71.2,-665.8,-2.7,-19.2,-42.9,-137.9,0,0,1704,0,97,0,
0.9467,-87.6,-90.0,-72.4,-87.3,-235.9,-191.7,-62.1,-59.1,-52.5,-110.8,-1086.1,-736.4,-123.8,651.5,-210.3,171.0,-901.8,69.7,-662.8,-2.1,-20.4,-47.4,-139.7,0,0,1710,0,98,0,
0.9500,-85.5,-86.7,-73.3,-88.8,-240.1,-194.7,-64.1,-60.6,-48.9,-109.0,-1085.5,-728.9,-129.8,644.3,-213.9,165.6,-897.9,71.2,-667.9,-2.7,-20.7,-55.5,-144.1,0,0,1716,0,99,0,
0.9533,-87.0,-91.8,-79.3,-93.9,-247.3,-195.9,-66.5,-62.7,-60.6,-115.3,-1086.4,-735.5,-124.7,653.0,-204.0,181.8,-897.9,64.0,-671.1,-2.1,-26.7,-51.6,-147.4,0,0,1722,0,100,0,
0.9567,-84.3,-90.3,-75.4,-92.4,-246.1,-192.6,-64.4,-60.3,-69.0,-117.4,-1088.8,-735.2,-122.6,650.0,-210.6,164.1,-895.5,62.5,-673.5,-1.8,-24.9,-49.2,-141.4,0,0,1728,0,101,0,
0.9600,-85.8,-91.5,-83.8,-95.4,-242.5,-191.7,-63.0,-58.5,-64.2,-125.2,-1096.6,-735.5,-128.3,641.0,-211.2,175.2,-895.8,51.7,-689.7,-2.1,-35.1,-53.1,-140.8,0,0,1734,0,102,0,
0.9633,-83.4,-94.2,-87.4,-99.9,-246.4,-193.8,-61.5,-60.0,-67.8,-135.4,-1110.4,-746.6,-128.9,647.0,-210.9,170.7,-895.8,42.2,-700.7,-2.4,-35.7,-53.1,-150.4,0,0,1740,0,103,0,
0.9667,-83.1,-88.8,-81.4,-95.1,-244.0,-190.2,-63.8,-60.6,-57.0,-122.5,-1095.7,-737.6,-125.9,647.3,-207.9,178.2,-899.4,56.5,-681.3,-2.1,-31.8,-51.0,-148.9,0,0,1746,0,104,0,
0.9700,-77.1,-83.7,-70.1,-88.8,-237.1,-186.0,-62.4,-58.2,-44.1,-103.6,-1084.9,-734.3,-116.6,652.1,-204.9,176.7,-900.6,75.6,-665.8,-2.1,-9.9,-46.5,-142.6,0,0,1752,0,105,0,
0.9733,-83.7,-90.3,-78.4,-92.1,-239.5,-186.6,-64.7,-61.5,-52.2,-106.6,-1082.0,-737.3,-122.0,650.0,-207.6,177.3,-899.1,70.3,-663.4,-2.1,-13.8,-42.6,-140.8,0,0,1758,0,106,0,
0.9767,-87.3,-95.7,-84.4,-97.5,-242.2,-194.7,-64.1,-63.3,-55.5,-120.4,-1089.1,-737.3,-122.3,648.2,-210.6,168.0,-900.6,59.8,-665.5,-1.8,-18.6,-45.9,-147.7,0,0,1764,0,107,0,
0.9800,-82.5,-95.1,-82.0,-96.6,-241.3,-193.2,-65.0,-58.8,-51.3,-121.3,-1091.2,-729.2,-119.3,651.5,-208.5,184.5,-902.1,61.3,-672.9,-2.7,-22.2,-45.3,-146.8,0,0,1770,0,108,0,
0.9833,-78.9,-92.1,-84.1,-95.7,-240.7,-191.7,-65.3,-61.5,-53.4,-120.1,-1096.9,-734.3,-118.1,652.7,-206.7,172.2,-894.3,56.5,-675.0,-2.4,-14.1,-38.7,-143.8,0,0,1776,0,109,0,
0.9867,-78.3,-87.3,-77.2,-95.1,-237.4,-193.2,-63.0,-61.2,-48.9,-114.1,-1089.4,-728.6,-120.2,654.2,-208.5,174.0,-894.6,66.4,-676.8,-2.4,-17.1,-41.4,-140.8,0,0,1782,0,110,0,
0.9900,-85.8,-89.4,-83.5,-93.9,-240.4,-195.9,-67.7,-65.1,-54.3,-115.3,-1089.1,-732.8,-125.0,649.1,-209.7,172.5,-889.2,63.4,-673.8,-1.8,-17.1,-43.5,-144.7,0,0,1788,0,111,0,
0.9933,-84.3,-91.2,-83.8,-92.1,-243.4,-193.5,-66.5,-62.4,-59.4,-123.4,-1097.8,-735.2,-121.1,650.3,-211.8,166.5,-886.2,55.3,-681.6,-2.4,-24.6,-39.3,-145.6,0,0,1794,0,112,0,
0.9967,-82.2,-87.9,-78.4,-91.5,-243.4,-194.4,-64.4,-66.0,-58.2,-120.1,-1095.1,-731.6,-127.7,652.1,-216.6,177.9,-882.3,62.8,-677.1,-2.1,-28.8,-41.1,-145.9,0,0,1800,0,113,0,
1.0000,-81.9,-86.7,-80.2,-90.6,-239.2,-188.7,-63.2,-62.4,-56.4,-121.0,-1094.5,-734.3,-123.5,657.5,-210.3,187.2,-888.9,58.9,-674.7,-2.1,-19.2,-40.8,-140.3,0,0,1806,0,114,0,
1.0033,-78.9,-88.8,-81.1,-95.4,-243.4,-191.7,-63.8,-64.5,-57.0,-122.8,-1101.1,-733.4,-121.4,660.2,-213.0,168.6,-887.7,55.9,-679.2,-2.1,-29.1,-45.0,-147.1,0,0,1812,0,115,0,
1.0067,-80.1,-89.4,-83.2,-94.2,-241.6,-186.6,-61.5,-62.1,-55.2,-123.1,-1097.2,-731.0,-116.6,660.5,-218.4,160.2,-888.9,52.6,-676.8,-2.1,-26.4,-39.0,-143.8,0,0,1818,0,116,0,
1.0100,-83.4,-90.0,-81.4,-91.8,-239.2,-182.7,-62.4,-63.9,-55.5,-118.6,-1096.9,-732.8,-118.7,660.2,-212.7,183.9,-882.9,56.8,-669.3,-2.1,-26.4,-41.1,-135.8,0,0,1824,0,117,0,
1.0133,-84.0,-87.9,-81.4,-92.1,-234.1,-184.2,-64.1,-61.5,-50.7,-114.7,-1092.4,-730.1,-114.5,665.0,-207.9,189.6,-881.4,60.7,-666.1,-2.4,-22.5,-47.4,-140.0,0,0,1830,0,118,0,
1.0167,-81.9,-86.4,-76.9,-88.5,-233.8,-184.5,-61.2,-60.6,-51.6,-115.6,-1087.6,-732.2,-117.5,664.1,-206.1,175.2,-882.9,61.6,-659.8,-1.8,-23.4,-45.0,-137.0,0,0,1836,0,119,0,
1.0200,-85.5,-92.7,-82.0,-93.3,-235.3,-186.6,-65.6,-67.8,-59.7,-117.4,-1087.3,-739.1,-118.7,667.7,-206.7,162.0,-889.5,54.4,-662.2,-2.7,-20.7,-47.1,-141.7,0,0,1842,0,120,0,
1.0233,-82.2,-84.9,-70.7,-83.1,-226.9,-179.7,-62.1,-62.4,-50.4,-109.6,-1090.0,-730.4,-121.4,658.1,-208.8,168.3,-887.1,66.4,-659.5,-1.8,-18.9,-39.3,-137.0,0,0,1848,0,121,0,
1.0267,-83.7,-86.4,-69.8,-84.9,-227.8,-179.4,-57.9,-59.4,-43.8,-109.9,-1086.1,-731.0,-116.3,665.6,-204.3,158.7,-890.1,64.0,-655.9,-2.1,-13.2,-35.7,-139.7,0,0,1854,0,122,0,
1.0300,-92.1,-90.0,-73.3,-92.1,-235.3,-186.6,-64.4,-62.7,-53.4,-112.9,-1087.9,-734.3,-134.0,655.1,-212.7,163.8,-898.5,64.0,-659.5,-2.1,-22.2,-45.6,-144.7,0,0,1860,0,123,0,
1.0333,-90.0,-89.4,-77.5,-95.4,-236.8,-186.6,-66.2,-64.5,-48.9,-115.3,-1091.5,-734.0,-133.1,655.4,-213.9,167.1,-904.8,58.6,-662.2,-2.4,-20.7,-39.6,-146.2,0,0,1866,0,124,0,
1.0367,-86.7,-94.2,-84.1,-93.3,-235.0,-189.0,-65.6,-68.4,-63.3,-118.3,-1093.3,-739.7,-129.5,661.7,-211.2,174.0,-911.1,55.3,-666.4,-2.4,-25.5,-39.6,-147.4,0,0,1872,0,125,0,
1.0400,-93.0,-96.9,-86.5,-96.9,-238.0,-189.9,-63.8,-66.9,-66.3,-117.1,-1090.9,-742.4,-129.8,654.8,-210.0,173.1,-909.3,57.4,-669.9,-2.4,-24.9,-37.2,-145.6,0,0,1878,0,126,0,
1.0433,-87.9,-96.0,-88.9,-96.0,-235.3,-190.2,-61.8,-66.3,-60.6,-118.9,-1099.6,-738.8,-125.9,657.8,-208.2,176.7,-907.5,57.7,-683.1,-1.8,-25.8,-34.2,-143.5,0,0,1884,0,127,0,
1.0467,-87.6,-94.8,-86.5,-95.1,-233.8,-190.2,-63.2,-64.5,-53.1,-118.6,-1091.8,-731.9,-123.8,655.4,-205.8,173.7,-909.3,58.0,-668.7,-2.4,-21.9,-35.1,-148.0,0,0,1890,0,128,0,
1.0500,-90.6,-99.6,-94.6,-103.5,-236.8,-190.5,-63.2,-67.8,-58.5,-121.3,-1096.6,-734.0,-130.4,659.3,-200.1,184.2,-908.4,56.2,-671.1,-2.4,-25.8,-34.8,-150.4,0,0,1896,0,129,0,
1.0533,-88.5,-100.5,-94.3,-105.0,-244.6,-194.1,-68.3,-66.6,-64.2,-124.6,-1099.3,-739.7,-128.9,656.0,-215.7,172.5,-908.7,50.8,-675.0,-2.1,-32.1,-41.1,-151.3,0,0,1902,0,130,0,
1.0567,-90.6,-103.5,-92.2,-105.6,-243.1,-194.1,-65.9,-66.6,-62.1,-124.6,-1100.5,-740.9,-131.3,657.2,-215.7,169.8,-908.7,50.8,-678.6,-2.1,-34.8,-37.8,-150.4,0,0,1908,0,131,0,
1.0600,-90.9,-102.3,-91.6,-100.8,-242.2,-190.5,-63.2,-65.1,-65.4,-122.2,-1096.9,-743.3,-129.8,658.7,-207.3,177.3,-903.6,53.5,-672.3,-2.1,-23.1,-34.8,-142.6,0,0,1914,0,132,0,
1.0633,-93.9,-99.6,-85.9,-100.5,-236.5,-189.3,-63.0,-66.9,-62.7,-121.0,-1093.0,-743.0,-130.1,655.7,-206.4,177.9,-901.2,56.2,-663.1,-2.4,-22.2,-39.0,-139.4,0,0,1920,0,133,0,
1.0667,-89.1,-103.8,-92.2,-101.7,-243.1,-193.8,-65.3,-69.6,-63.6,-129.1,-1096.9,-746.6,-128.6,662.6,-207.6,193.5,-894.0,48.1,-665.8,-2.1,-26.7,-39.0,-140.8,0,0,1926,0,134,0,
1.0700,-89.7,-105.3,-91.3,-104.4,-247.6,-195.9,-67.1,-72.0,-69.0,-125.2,-1104.1,-750.5,-130.1,661.4,-208.2,180.0,-893.4,51.4,-671.7,-2.4,-28.8,-41.7,-147.4,0,0,1932,0,135,0,
1.0733,-90.0,-105.3,-94.0,-105.9,-248.5,-193.8,-66.2,-72.0,-62.4,-129.4,-1100.8,-755.9,-124.1,667.4,-202.2,161.1,-899.1,47.8,-668.2,-1.8,-29.7,-32.4,-144.1,0,0,1938,0,136,0,
1.0767,-89.4,-106.2,-100.0,-111.6,-253.3,-199.5,-71.9,-76.5,-70.2,-133.6,-1106.8,-750.2,-122.3,668.6,-203.1,179.4,-894.6,43.6,-686.7,-1.8,-33.3,-39.9,-148.6,0,0,1944,0,137,0,
1.0800,-89.1,-101.4,-99.7,-111.9,-253.0,-199.5,-69.5,-72.6,-64.5,-132.4,-1105.0,-738.8,-116.9,677.0,-201.3,186.6,-891.3,48.1,-684.9,-2.1,-29.7,-37.5,-143.8,0,0,1950,0,138,0,
1.0833,-89.1,-107.4,-103.0,-111.9,-253.0,-198.9,-67.1,-74.4,-67.8,-132.4,-1102.6,-747.8,-122.9,671.6,-205.5,213.0,-894.3,45.7,-684.3,-2.7,-24.9,-38.7,-145.6,0,0,1956,0,139,0,
1.0867,-90.9,-102.6,-94.3,-105.0,-249.7,-199.8,-69.2,-72.0,-65.1,-130.6,-1099.9,-741.8,-125.9,666.2,-207.6,180.6,-896.4,53.2,-679.8,-2.4,-28.2,-36.3,-145.6,0,0,1962,0,140,0,
1.0900,-85.8,-99.9,-91.9,-103.5,-249.4,-199.5,-67.4,-72.9,-56.7,-124.0,-1102.3,-737.9,-121.4,670.4,-202.5,182.7,-894.6,58.0,-682.8,-2.7,-24.0,-34.8,-149.2,0,0,1968,0,141,0,
1.0933,-86.7,-96.3,-86.8,-97.8,-245.5,-199.8,-68.3,-69.6,-62.1,-122.5,-1098.1,-739.1,-125.0,672.8,-203.1,183.0,-892.5,61.6,-675.0,-2.1,-23.1,-35.4,-145.6,0,0,1974,0,142,0,
1.0967,-87.3,-95.1,-85.6,-95.7,-242.8,-196.5,-68.0,-69.6,-61.5,-121.0,-1097.2,-736.4,-125.0,668.9,-209.7,161.1,-895.2,58.9,-674.4,-2.4,-22.5,-29.7,-144.4,0,0,1980,0,143,0,
1.1000,-83.7,-91.5,-77.2,-91.8,-238.0,-195.3,-65.3,-64.5,-56.4,-112.9,-1089.4,-730.1,-120.8,667.4,-205.5,158.4,-894.9,68.2,-671.1,-2.1,-23.7,-26.1,-141.4,0,0,1986,0,144,0,
1.1033,-84.6,-93.9,-82.3,-92.7,-238.3,-192.3,-67.1,-68.1,-54.0,-115.3,-1091.8,-737.0,-118.1,670.1,-205.8,147.6,-895.2,64.0,-674.4,-2.4,-21.6,-28.8,-143.5,0,0,1992,0,145,0,
1.1067,-74.4,-83.4,-71.8,-84.9,-230.2,-189.0,-62.7,-60.0,-45.3,-104.5,-1084.9,-723.8,-107.6,680.3,-194.1,173.4,-897.9,75.3,-661.3,-1.8,-10.2,-25.2,-135.2,0,0,1998,0,146,0,
1.1100,-79.2,-85.8,-71.0,-84.0,-229.3,-188.4,-59.7,-59.1,-46.5,-100.3,-1082.6,-721.7,-117.5,674.9,-195.9,164.1,-893.4,81.9,-658.3,-2.4,-12.9,-22.8,-132.2,0,0,2004,0,147,0,
1.1133,-88.2,-93.3,-79.9,-90.9,-235.9,-191.1,-65.0,-66.6,-48.3,-113.8,-1089.1,-728.6,-125.6,665.0,-206.1,174.6,-896.7,68.2,-665.5,-2.1,-23.4,-30.9,-138.2,0,0,2010,0,148,0,
1.1167,-82.2,-87.9,-76.0,-88.8,-233.5,-186.3,-57.0,-60.3,-55.8,-111.1,-1086.4,-728.9,-120.5,670.1,-201.6,174.0,-894.6,71.7,-660.1,-2.4,-12.9,-22.2,-132.2,0,0,2016,0,149,0,
1.1200,-82.2,-89.1,-77.8,-90.3,-234.4,-185.4,-57.6,-65.4,-52.8,-111.7,-1089.7,-730.1,-113.6,671.3,-197.7,177.6,-895.8,70.6,-664.9,-1.8,-11.1,-24.3,-132.2,0,0,2022,0,150,0,
1.1233,-85.8,-91.8,-77.8,-91.8,-237.4,-187.2,-64.7,-69.6,-56.1,-115.0,-1095.7,-735.2,-119.0,669.8,-202.8,176.4,-897.3,69.7,-668.2,-2.7,-18.3,-35.1,-139.7,0,0,2028,0,151,0,
1.1267,-85.2,-88.5,-76.0,-92.1,-239.5,-188.1,-63.8,-68.7,-55.2,-113.8,-1089.7,-734.6,-115.1,669.2,-202.8,174.6,-892.5,70.3,-665.2,-2.4,-18.9,-36.3,-137.6,0,0,2034,0,152,0,
1.1300,-85.2,-87.3,-73.6,-89.7,-236.5,-189.0,-65.0,-67.2,-52.8,-109.3,-1082.6,-727.4,-116.6,665.6,-207.9,186.0,-879.9,77.7,-670.2,-2.4,-13.5,-33.6,-137.3,0,0,2040,0,153,0,
1.1333,-82.8,-83.7,-71.0,-87.0,-232.6,-187.8,-62.1,-64.5,-49.8,-108.7,-1085.5,-725.6,-112.7,671.3,-207.6,184.2,-827.7,78.3,-672.0,-2.4,-14.4,-30.9,-134.9,0,0,2046,0,154,0,
1.1367,-83.7,-84.6,-71.8,-87.9,-233.2,-190.5,-65.0,-63.3,-56.1,-108.1,-1088.2,-733.7,-118.7,665.3,-211.2,172.2,-750.6,71.2,-661.9,-1.8,-13.2,-29.4,-138.2,0,0,2052,0,155,0,
1.1400,-83.4,-85.5,-74.2,-91.2,-236.8,-194.4,-68.0,-67.2,-55.2,-108.4,-1089.7,-734.9,-114.8,674.3,-204.6,172.5,-714.6,72.9,-667.6,-2.1,-17.4,-33.9,-137.0,0,0,2058,0,156,0,
1.1433,-83.4,-85.8,-71.2,-88.5,-240.1,-194.1,-67.7,-64.8,-43.5,-102.7,-1087.9,-726.5,-114.8,672.2,-205.2,177.3,-774.9,78.6,-670.5,-1.8,-12.3,-36.3,-139.7,0,0,2064,0,157,0,
1.1467,-86.7,-89.1,-74.8,-88.8,-240.1,-193.8,-67.7,-65.1,-49.2,-106.6,-1085.8,-726.2,-116.3,671.9,-210.0,167.4,-939.9,73.5,-663.1,-2.4,-26.1,-36.6,-138.8,0,0,2070,0,158,0,
1.1500,-87.0,-86.7,-70.7,-87.9,-236.5,-192.0,-63.8,-62.4,-40.5,-103.3,-1087.9,-716.9,-113.9,668.9,-205.2,172.5,-1183.5,80.4,-659.5,-2.4,-14.7,-29.4,-139.1,0,0,2076,0,159,0,
1.1533,-86.7,-87.0,-75.4,-91.8,-240.4,-197.1,-66.5,-63.0,-35.1,-108.7,-1090.9,-723.2,-108.8,681.5,-206.7,174.0,-1460.7,71.5,-667.6,-2.4,-20.4,-35.4,-142.3,0,0,2082,0,160,0,
1.1567,-87.3,-87.9,-78.1,-94.2,-239.5,-199.8,-68.3,-64.2,-36.9,-120.7,-1093.6,-722.0,-105.5,681.8,-201.9,175.8,-1716.0,64.0,-675.6,-2.4,-32.1,-35.1,-146.5,0,0,2088,0,161,0,
1.1600,-90.3,-95.1,-80.8,-99.9,-242.2,-201.0,-66.8,-68.7,-42.9,-123.1,-1102.9,-727.4,-112.1,682.7,-204.9,182.7,-1909.8,59.8,-686.1,-2.4,-39.3,-37.2,-149.8,0,0,2094,0,162,0,
1.1633,-89.1,-94.2,-78.4,-99.9,-245.8,-201.9,-65.6,-70.5,-40.2,-120.4,-1101.7,-727.7,-112.4,686.3,-204.3,189.0,-1875.3,64.0,-679.2,-2.4,-35.7,-38.7,-151.6,0,0,2100,0,163,0,
1.1667,-89.1,-93.6,-81.7,-100.5,-245.2,-200.1,-64.4,-69.3,-45.6,-121.3,-1098.7,-731.9,-113.9,684.2,-206.1,184.8,-1726.8,59.2,-676.8,-2.4,-30.0,-38.4,-150.4,0,0,2106,0,164,0,
1.1700,-85.8,-94.8,-81.4,-99.3,-247.6,-196.8,-62.7,-66.0,-50.7,-121.9,-1103.5,-734.9,-113.3,682.1,-201.6,202.8,-1449.3,57.7,-684.6,-2.1,-21.0,-29.7,-148.3,0,0,2112,0,165,0,
1.1733,-95.7,-102.3,-88.3,-103.8,-249.1,-201.0,-65.9,-72.0,-57.3,-127.3,-1101.4,-746.3,-124.4,673.1,-206.1,174.9,-1156.5,52.3,-682.2,-2.4,-23.7,-33.3,-149.2,0,0,2118,0,166,0,
1.1767,-93.0,-97.8,-81.1,-96.6,-243.7,-195.3,-63.8,-68.1,-63.6,-116.2,-1095.1,-745.1,-122.0,671.6,-210.6,146.4,-967.5,60.7,-673.8,-2.4,-16.8,-26.4,-151.3,0,0,2124,0,167,0,
1.1800,-93.3,-95.4,-80.5,-97.5,-244.3,-198.0,-68.3,-67.8,-59.1,-117.7,-1091.2,-740.3,-121.4,672.2,-211.5,170.7,-1004.7,61.3,-668.4,-2.1,-12.6,-36.3,-148.6,0,0,2130,0,168,0,
1.1833,-92.4,-94.5,-81.4,-94.8,-242.8,-194.7,-67.4,-69.3,-49.5,-116.5,-1090.6,-734.0,-125.0,670.1,-210.6,175.2,-1049.1,61.9,-661.9,-2.4,-11.7,-34.5,-144.1,0,0,2136,0,169,0,
1.1867,-93.0,-93.0,-79.6,-90.6,-242.5,-191.1,-65.6,-68.7,-42.9,-110.5,-1088.5,-725.9,-126.8,667.4,-208.5,178.8,-1056.9,67.3,-659.2,-2.4,-7.8,-30.9,-141.4,0,0,2142,0,170,0,
1.1900,-88.8,-94.8,-78.4,-91.5,-244.6,-195.3,-63.5,-69.9,-37.8,-110.5,-1089.4,-730.4,-117.2,669.8,-210.3,169.2,-1038.9,65.5,-655.9,-2.1,-6.6,-30.6,-142.6,0,0,2148,0,171,0,
1.1933,-91.8,-97.8,-81.7,-91.5,-241.6,-197.1,-66.2,-69.0,-55.5,-113.8,-1091.2,-737.6,-116.6,669.2,-214.5,176.4,-997.5,68.2,-650.8,-2.1,-10.2,-31.8,-141.7,0,0,2154,0,172,0,
1.1967,-90.6,-99.6,-87.1,-96.9,-244.6,-197.7,-69.2,-74.4,-52.5,-124.6,-1093.6,-740.0,-113.0,670.1,-214.2,180.0,-963.6,53.5,-657.4,-2.1,-17.1,-35.4,-148.0,0,0,2160,0,173,0,
1.2000,-90.0,-97.2,-83.5,-93.0,-238.6,-188.7,-63.0,-71.7,-42.3,-115.6,-1088.5,-735.8,-115.1,671.3,-210.6,180.0,-944.7,60.7,-655.3,-2.1,-2.4,-30.6,-139.1,0,0,2166,0,174,0,
1.2033,-87.9,-96.0,-81.7,-96.9,-238.0,-192.6,-63.8,-70.5,-47.1,-115.0,-1085.2,-735.5,-116.0,674.0,-211.8,180.0,-930.3,60.4,-658.0,-1.5,-6.0,-28.5,-139.4,0,0,2172,0,175,0,
1.2067,-91.5,-95.4,-81.4,-94.8,-239.8,-190.2,-61.5,-70.2,-54.0,-115.3,-1088.2,-735.5,-120.2,669.5,-216.0,178.2,-925.8,66.1,-661.6,-2.7,-9.9,-30.0,-139.7,0,0,2178,0,176,0,
1.2100,-88.5,-90.6,-79.0,-92.7,-240.7,-189.0,-63.0,-68.7,-41.7,-110.2,-1083.7,-734.0,-117.5,671.6,-213.0,176.4,-918.9,67.6,-655.3,-2.4,-9.6,-28.2,-138.8,0,0,2184,0,177,0,
1.2133,-87.3,-91.8,-81.7,-93.6,-240.7,-192.0,-65.0,-72.0,-52.8,-112.3,-1086.1,-734.9,-113.6,671.3,-215.7,178.8,-916.8,66.4,-661.3,-2.4,-11.7,-39.0,-140.8,0,0,2190,0,178,0,
1.2167,-86.7,-92.1,-81.7,-96.9,-242.2,-189.6,-63.2,-73.5,-49.2,-113.2,-1088.8,-734.6,-114.5,670.7,-214.2,175.5,-910.5,60.7,-669.6,-2.4,-11.7,-35.7,-138.5,0,0,2196,0,179,0,
1.2200,-85.2,-87.6,-79.0,-95.1,-244.3,-190.2,-61.2,-70.8,-45.9,-107.5,-1084.9,-731.0,-111.8,671.9,-214.8,187.5,-906.3,73.5,-662.2,-2.4,-1.5,-27.3,-137.0,0,0,2202,0,180,0,
1.2233,-81.6,-84.6,-75.7,-92.4,-243.1,-184.2,-56.4,-66.3,-36.0,-105.7,-1083.5,-722.9,-103.7,681.5,-206.7,184.8,-905.7,72.3,-656.5,-2.4,0.0,-14.4,-135.8,0,0,2208,0,181,0,
1.2267,-78.6,-88.2,-77.5,-93.3,-238.6,-183.3,-57.3,-67.2,-47.1,-108.4,-1084.3,-723.2,-112.7,671.9,-213.6,180.3,-906.6,68.2,-652.9,-1.5,0.3,-26.1,-133.1,0,0,2214,0,182,0,
1.2300,-82.2,-87.6,-76.3,-91.5,-236.2,-185.7,-57.3,-65.7,-41.1,-103.9,-1079.0,-717.5,-108.8,676.4,-209.7,174.9,-901.8,73.2,-646.3,-1.5,1.8,-31.5,-130.7,0,0,2220,0,183,0,
1.2333,-84.0,-89.1,-74.8,-88.8,-234.7,-188.4,-60.6,-65.7,-43.8,-100.3,-1072.7,-719.9,-113.0,667.7,-216.6,170.7,-903.9,78.0,-649.9,-2.1,-1.8,-36.9,-135.8,0,0,2226,0,184,0,
1.2367,-82.2,-89.4,-78.7,-87.0,-236.8,-186.0,-60.9,-61.8,-41.4,-100.3,-1077.8,-718.1,-107.9,677.9,-209.7,187.8,-905.4,72.6,-649.0,-2.4,-0.3,-30.0,-134.9,0,0,2232,0,185,0,
1.2400,-82.2,-92.7,-82.6,-93.3,-239.8,-191.1,-64.4,-68.1,-46.2,-106.9,-1080.2,-723.8,-111.5,672.8,-209.7,216.9,-903.6,69.4,-648.4,-2.1,-4.5,-29.1,-132.5,0,0,2238,0,186,0,
1.2433,-78.9,-87.9,-77.8,-89.1,-236.5,-186.3,-65.6,-64.5,-39.9,-97.3,-1073.6,-713.3,-104.3,676.4,-211.2,176.1,-903.9,78.9,-644.6,-2.1,-4.8,-30.0,-132.2,0,0,2244,0,187,0,
1.2467,-86.1,-91.2,-82.3,-92.1,-236.8,-186.3,-64.4,-66.0,-41.1,-102.4,-1076.9,-720.8,-117.8,674.9,-216.0,157.5,-903.6,69.1,-647.8,-2.1,-3.3,-32.1,-135.2,0,0,2250,0,188,0,
1.2500,-83.7,-91.2,-76.9,-87.0,-230.8,-185.4,-59.7,-66.6,-36.6,-99.1,-1073.9,-713.9,-118.7,673.4,-215.1,192.6,-904.8,77.7,-648.7,-2.4,0.0,-25.5,-131.3,0,0,2256,0,189,0,
1.2533,-81.6,-91.8,-78.7,-90.3,-234.4,-186.9,-60.9,-68.7,-39.3,-100.3,-1071.8,-724.4,-112.7,680.0,-222.0,171.3,-905.7,75.6,-644.3,-2.1,-4.5,-27.9,-132.8,0,0,2262,0,190,0,
1.2567,-90.0,-93.9,-82.0,-94.5,-244.9,-193.2,-64.4,-73.8,-42.9,-102.4,-1081.7,-728.9,-115.4,674.3,-225.9,204.9,-907.5,73.2,-654.4,-2.1,-3.6,-36.6,-137.3,0,0,2268,0,191,0,
1.2600,-84.6,-85.8,-72.4,-85.8,-237.4,-189.0,-58.8,-67.2,-39.9,-96.2,-1069.7,-721.4,-111.5,681.2,-214.5,175.5,-909.6,78.9,-637.7,-2.1,-1.8,-31.5,-130.1,0,0,2274,0,192,0,
1.2633,-86.4,-89.4,-74.2,-88.2,-238.0,-185.7,-60.0,-63.9,-38.1,-100.6,-1076.3,-722.0,-111.8,679.4,-216.0,153.6,-910.2,77.4,-652.3,-1.8,0.9,-25.2,-126.2,0,0,2280,0,193,0,
1.2667,-90.0,-95.7,-78.4,-93.0,-240.7,-190.2,-62.4,-68.7,-37.2,-101.2,-1078.1,-728.3,-115.1,673.4,-217.2,148.8,-913.2,79.5,-655.0,-2.4,0.3,-30.3,-131.0,0,0,2286,0,194,0,
1.2700,-93.3,-96.3,-79.3,-94.5,-240.7,-190.8,-63.8,-68.7,-44.1,-100.9,-1083.5,-731.6,-117.5,674.3,-222.3,168.3,-913.8,76.5,-659.8,-2.4,-5.1,-33.0,-133.4,0,0,2292,0,195,0,
1.2733,-91.8,-94.2,-79.6,-94.5,-242.2,-193.8,-62.1,-67.2,-42.6,-106.6,-1085.8,-730.1,-113.6,674.9,-219.9,189.6,-916.8,71.2,-658.6,-2.4,-5.7,-32.1,-130.7,0,0,2298,0,196,0,
1.2767,-92.4,-96.3,-79.6,-94.2,-239.8,-192.3,-63.0,-69.9,-48.6,-106.3,-1083.7,-728.0,-116.3,672.5,-227.1,173.1,-916.8,75.3,-656.8,-2.4,-12.6,-39.6,-134.3,0,0,2304,0,197,0,
1.2800,-88.5,-93.6,-77.2,-87.9,-233.5,-185.7,-59.7,-66.3,-38.1,-104.5,-1080.2,-714.5,-110.0,679.4,-216.6,165.9,-921.3,74.7,-658.6,-2.1,-6.6,-32.4,-129.5,0,0,2310,0,198,0,
1.2833,-93.6,-99.3,-86.2,-97.2,-247.9,-192.6,-65.9,-72.0,-46.5,-111.4,-1094.8,-718.1,-116.9,673.4,-223.2,200.7,-924.3,64.6,-675.0,-2.1,-9.6,-39.9,-136.4,0,0,2316,0,199,0,
1.2867,-96.0,-102.0,-91.3,-102.3,-251.8,-199.5,-66.5,-75.6,-51.3,-123.1,-1104.1,-720.5,-118.1,669.5,-224.7,174.9,-928.2,56.8,-678.3,-2.1,-12.6,-39.9,-143.8,0,0,2322,0,200,0,
1.2900,-98.4,-103.8,-94.6,-106.2,-257.2,-198.6,-68.0,-74.1,-58.8,-127.3,-1105.3,-722.0,-116.3,666.5,-226.2,168.9,-931.2,49.9,-679.2,-2.1,-15.3,-42.3,-142.9,0,0,2328,0,201,0,
1.2933,-93.0,-100.5,-89.8,-101.7,-253.3,-198.9,-67.7,-74.7,-54.6,-115.9,-1092.7,-719.9,-116.9,669.5,-225.0,158.4,-930.6,65.2,-664.3,-2.1,-12.0,-42.0,-141.4,0,0,2334,0,202,0,
1.2967,-95.7,-100.2,-88.6,-102.3,-253.9,-198.6,-69.2,-76.2,-52.2,-111.1,-1093.0,-720.8,-113.6,673.4,-222.6,173.1,-929.7,71.2,-669.0,-2.4,-14.4,-41.1,-145.0,0,0,2340,0,203,0,
1.3000,-96.9,-103.2,-87.4,-100.8,-247.6,-196.5,-71.0,-73.2,-50.4,-106.6,-1079.6,-725.0,-117.5,665.0,-223.2,174.6,-936.9,61.6,-655.6,-2.4,-20.4,-39.0,-147.7,0,0,2346,0,204,0,
1.3033,-96.9,-102.0,-88.9,-98.1,-246.4,-192.0,-68.0,-71.7,-55.2,-107.8,-1081.4,-724.7,-117.2,669.2,-221.7,177.9,-934.8,66.1,-655.3,-2.1,-14.4,-37.8,-145.3,0,0,2352,0,205,0,
1.3067,-92.7,-95.7,-85.3,-97.8,-244.3,-193.2,-67.4,-70.8,-53.4,-106.3,-1083.2,-719.6,-109.7,679.1,-218.1,183.0,-937.2,66.7,-656.2,-2.7,-10.5,-35.7,-142.3,0,0,2358,0,206,0,
1.3100,-84.6,-87.0,-71.2,-84.3,-230.5,-183.0,-57.6,-60.3,-38.4,-90.2,-1066.1,-711.5,-105.8,679.4,-215.1,172.8,-942.9,85.5,-644.0,-2.4,-0.3,-17.4,-128.9,0,0,2364,0,207,0,
1.3133,-86.7,-90.9,-69.5,-81.9,-230.8,-184.2,-60.3,-64.2,-39.6,-90.5,-1064.3,-708.5,-110.3,675.5,-222.6,180.3,-948.6,82.5,-644.0,-1.8,-6.0,-30.3,-134.0,0,0,2370,0,208,0,
1.3167,-88.5,-93.3,-72.4,-85.2,-234.7,-185.7,-61.2,-64.5,-45.9,-95.0,-1071.2,-715.7,-111.5,677.9,-215.7,182.4,-952.2,80.7,-652.3,-2.4,-9.9,-34.8,-132.8,0,0,2376,0,209,0,
1.3200,-89.4,-95.1,-74.2,-84.6,-237.4,-186.0,-65.9,-65.4,-44.7,-94.4,-1070.9,-715.7,-110.0,676.1,-219.3,176.1,-959.1,75.6,-661.0,-2.4,-7.2,-38.7,-137.3,0,0,2382,0,210,0,
1.3233,-87.6,-98.1,-78.4,-92.7,-239.8,-183.6,-64.1,-67.8,-50.1,-104.2,-1082.9,-720.2,-107.9,680.0,-220.2,169.5,-962.4,62.2,-670.8,-2.7,-8.4,-41.7,-134.9,0,0,2388,0,211,0,
1.3267,-85.8,-97.5,-81.7,-92.7,-238.3,-184.8,-63.5,-66.6,-48.3,-107.8,-1084.6,-719.3,-113.0,675.5,-219.6,170.1,-965.4,63.1,-674.7,-2.1,-16.5,-41.1,-138.2,0,0,2394,0,212,0,
1.3300,-81.0,-90.9,-75.4,-89.4,-232.9,-180.3,-60.3,-60.3,-41.1,-99.7,-1075.1,-711.8,-115.4,680.3,-216.3,171.0,-970.2,72.6,-670.2,-2.1,-6.9,-40.5,-130.7,0,0,2400,0,213,0,
1.3333,-83.7,-90.3,-79.6,-85.2,-235.0,-183.9,-61.5,-61.5,-45.3,-103.9,-1079.0,-715.4,-117.2,677.0,-213.6,167.4,-976.2,71.5,-672.9,-2.1,-11.4,-33.9,-133.7,0,0,2406,0,214,0,
1.3367,-80.4,-89.4,-77.5,-87.9,-235.0,-185.1,-61.8,-62.7,-50.1,-102.7,-1079.9,-717.8,-117.5,678.2,-218.7,174.6,-984.0,71.2,-673.2,-1.8,-16.2,-41.1,-137.3,0,0,2412,0,215,0,
1.3400,-81.6,-91.8,-78.4,-87.6,-233.5,-186.6,-62.1,-65.7,-47.1,-109.9,-1082.3,-722.6,-119.0,676.4,-215.1,176.1,-991.2,61.9,-669.3,-2.1,-16.2,-47.4,-137.6,0,0,2418,0,216,0,
1.3433,-84.0,-90.3,-69.8,-85.5,-230.8,-183.0,-60.9,-63.0,-40.8,-100.0,-1075.7,-714.5,-122.0,674.0,-215.7,175.8,-996.0,70.6,-673.8,-2.4,-10.8,-50.7,-135.8,0,0,2424,0,217,0,
1.3467,-89.7,-95.7,-78.4,-89.4,-236.8,-183.9,-57.3,-66.0,-45.0,-104.5,-1079.3,-718.4,-125.3,675.8,-210.3,176.4,-1001.4,58.9,-675.0,-1.8,-23.1,-46.2,-136.7,0,0,2430,0,218,0,
1.3500,-88.2,-95.4,-78.1,-88.8,-237.4,-188.7,-60.9,-64.5,-47.4,-102.1,-1079.0,-714.8,-129.8,677.0,-214.2,177.0,-1006.5,60.1,-681.9,-1.8,-17.7,-46.5,-137.3,0,0,2436,0,219,0,
1.3533,-84.9,-96.9,-79.6,-91.2,-233.2,-187.8,-61.2,-66.6,-50.7,-105.1,-1082.3,-721.4,-126.8,679.7,-210.6,175.8,-1012.2,60.1,-680.7,-2.1,-19.5,-44.1,-143.5,0,0,2442,0,220,0,
1.3567,-82.5,-91.8,-74.8,-87.9,-238.9,-189.9,-65.3,-66.9,-52.2,-98.8,-1078.7,-717.2,-131.0,679.4,-208.8,176.7,-1016.4,67.6,-684.3,-2.1,-19.8,-48.3,-146.2,0,0,2448,0,221,0,
1.3600,-80.7,-84.6,-72.1,-84.3,-229.6,-178.2,-62.1,-65.7,-42.9,-97.3,-1068.5,-709.1,-128.6,680.3,-204.9,177.9,-1019.7,66.4,-672.6,-2.4,-14.7,-48.3,-141.4,0,0,2454,0,222,0,
1.3633,-78.9,-87.0,-66.5,-78.3,-226.6,-174.6,-55.2,-58.8,-35.1,-92.6,-1064.9,-710.0,-125.6,681.5,-199.8,176.1,-1025.1,73.8,-663.4,-2.4,-10.2,-44.4,-134.0,0,0,2460,0,223,0,
1.3667,-76.8,-90.6,-70.7,-82.5,-230.5,-175.8,-54.9,-62.1,-36.6,-94.7,-1068.8,-714.8,-120.5,685.7,-203.7,172.5,-1030.2,70.9,-664.0,-2.1,-17.1,-38.4,-136.1,0,0,2466,0,224,0,
1.3700,-81.9,-96.3,-79.6,-85.2,-236.5,-180.9,-58.5,-63.6,-51.0,-103.6,-1083.7,-721.4,-122.0,692.9,-200.1,172.8,-1033.8,59.5,-678.9,-2.1,-19.8,-46.2,-145.0,0,0,2472,0,225,0,
1.3733,-84.0,-97.8,-80.2,-89.7,-239.5,-181.5,-59.7,-65.4,-52.5,-107.5,-1088.5,-725.3,-127.4,682.1,-203.1,180.3,-1035.6,55.0,-683.4,-2.4,-23.1,-51.0,-145.9,0,0,2478,0,226,0,
1.3767,-81.3,-94.5,-76.9,-86.4,-233.5,-180.6,-59.1,-62.4,-46.8,-104.2,-1082.3,-725.0,-124.7,683.0,-198.3,174.6,-1037.7,59.2,-676.5,-2.1,-18.9,-42.3,-142.6,0,0,2484,0,227,0,
1.3800,-83.7,-95.7,-76.9,-86.1,-234.7,-180.9,-60.3,-63.0,-49.5,-104.2,-1076.6,-726.8,-134.3,677.6,-205.5,184.5,-1041.0,61.9,-682.2,-2.1,-21.6,-48.0,-143.5,0,0,2490,0,228,0,
1.3833,-87.6,-95.4,-79.9,-88.8,-232.6,-182.1,-62.1,-63.6,-47.1,-107.2,-1084.9,-725.9,-137.5,672.5,-206.4,179.4,-1041.3,60.1,-687.3,-2.1,-21.6,-56.7,-145.6,0,0,2496,0,229,0,
1.3867,-87.6,-97.8,-83.8,-90.3,-239.2,-185.1,-64.4,-63.0,-53.7,-108.1,-1084.6,-731.3,-136.4,672.5,-205.2,172.2,-1043.1,55.3,-695.0,-1.8,-31.8,-58.2,-151.9,0,0,2502,0,230,0,
1.3900,-91.2,-103.8,-90.1,-93.3,-241.3,-189.0,-68.9,-68.1,-66.0,-114.4,-1087.6,-738.5,-141.1,671.3,-205.8,180.0,-1044.0,48.4,-697.4,-2.1,-35.7,-58.2,-158.5,0,0,2508,0,231,0,
1.3933,-91.2,-103.2,-82.9,-89.7,-236.8,-185.7,-61.2,-61.8,-57.9,-109.0,-1088.5,-733.4,-145.3,666.8,-207.0,180.6,-1044.9,53.5,-692.9,-2.4,-32.7,-50.1,-151.9,0,0,2514,0,232,0,
1.3967,-92.1,-102.9,-84.7,-91.5,-239.2,-191.4,-66.5,-66.9,-51.3,-114.4,-1098.1,-735.5,-140.2,668.3,-202.5,192.9,-1042.5,53.5,-696.2,-2.1,-33.9,-50.7,-157.6,0,0,2520,0,233,0,
1.4000,-84.9,-95.1,-74.2,-78.9,-230.5,-183.9,-55.2,-57.6,-45.9,-103.0,-1078.7,-722.0,-134.9,677.3,-197.1,160.2,-1037.4,66.1,-683.4,-2.4,-27.6,-39.6,-146.2,0,0,2526,0,234,0,
1.4033,-87.9,-105.6,-79.3,-87.0,-242.5,-192.0,-62.4,-68.1,-55.2,-107.5,-1088.5,-719.9,-132.8,679.1,-201.0,144.6,-1030.2,60.7,-691.1,-2.1,-33.3,-45.3,-149.8,0,0,2532,0,235,0,
1.4067,-90.3,-109.5,-83.2,-88.8,-234.4,-188.7,-66.2,-68.7,-58.8,-114.1,-1087.6,-724.7,-141.1,670.4,-202.2,173.1,-1022.1,57.7,-693.8,-2.1,-37.5,-48.3,-150.4,0,0,2538,0,236,0,
1.4100,-91.2,-101.1,-77.8,-86.1,-233.8,-186.9,-65.6,-66.9,-52.2,-106.6,-1085.2,-719.6,-145.3,665.9,-206.7,169.8,-1006.8,67.9,-692.3,-2.1,-34.2,-48.6,-147.4,0,0,2544,0,237,0,
1.4133,-90.3,-98.1,-81.1,-87.9,-234.1,-185.7,-63.5,-69.3,-52.8,-106.3,-1080.2,-725.9,-138.4,669.8,-207.9,169.8,-994.2,64.9,-696.2,-2.7,-33.6,-43.5,-144.1,0,0,2550,0,238,0,
1.4167,-88.2,-99.6,-81.1,-89.7,-236.5,-187.8,-64.1,-68.7,-62.4,-107.8,-1087.6,-727.4,-132.5,663.5,-209.1,192.6,-979.2,61.9,-694.4,-2.4,-37.5,-53.1,-146.8,0,0,2556,0,239,0,
1.4200,-91.2,-107.7,-90.4,-95.1,-241.0,-194.7,-67.7,-74.1,-60.0,-113.8,-1092.4,-732.2,-130.1,669.5,-208.5,194.1,-968.7,54.1,-701.9,-2.4,-37.5,-54.0,-149.5,0,0,2562,0,240,0,
1.4233,-88.2,-104.1,-83.8,-93.9,-240.7,-196.5,-66.5,-72.6,-61.5,-112.0,-1087.6,-720.8,-133.7,662.9,-204.9,160.2,-957.6,62.8,-704.9,-2.1,-29.7,-50.4,-145.3,0,0,2568,0,241,0,
1.4267,-87.6,-101.1,-82.6,-94.5,-238.3,-196.5,-66.5,-71.4,-66.0,-112.6,-1081.7,-720.8,-133.7,661.1,-210.3,178.5,-948.9,56.5,-699.5,-2.4,-29.1,-51.0,-140.8,0,0,2574,0,242,0,
1.4300,-84.6,-98.4,-84.7,-94.2,-240.1,-196.8,-68.6,-71.7,-65.4,-112.3,-1086.4,-719.9,-134.9,659.0,-215.4,175.2,-940.5,54.4,-701.6,-1.8,-30.9,-57.0,-148.6,0,0,2580,0,243,0,
1.4333,-87.6,-98.4,-83.2,-95.4,-240.7,-196.2,-64.1,-71.1,-53.4,-108.7,-1084.0,-718.1,-127.4,660.2,-216.3,183.3,-933.3,59.5,-695.6,-2.4,-27.9,-48.6,-149.8,0,0,2586,0,244,0,
1.4367,-86.1,-98.4,-83.8,-91.8,-240.7,-194.1,-63.2,-72.0,-57.3,-106.9,-1084.9,-718.1,-130.4,665.6,-214.5,163.2,-924.3,59.8,-697.4,-2.1,-32.1,-51.0,-147.1,0,0,2592,0,245,0,
1.4400,-87.3,-102.3,-83.8,-96.3,-241.3,-192.0,-63.5,-73.2,-56.1,-111.7,-1084.6,-718.7,-131.6,667.7,-208.5,203.7,-922.2,57.7,-695.9,-2.4,-31.8,-52.5,-145.6,0,0,2598,0,246,0,
1.4433,-88.8,-102.3,-85.0,-91.2,-236.8,-192.6,-61.5,-68.7,-63.6,-109.3,-1084.3,-726.8,-141.1,664.4,-205.5,175.2,-916.5,57.7,-688.5,-1.8,-27.9,-53.1,-147.4,0,0,2604,0,247,0,
1.4467,-89.1,-100.2,-83.5,-89.7,-230.8,-186.9,-64.1,-64.8,-60.6,-107.5,-1081.4,-724.1,-139.0,662.9,-210.6,130.5,-913.5,60.1,-682.8,-2.1,-31.2,-56.1,-144.1,0,0,2610,0,248,0,
1.4500,-86.1,-95.7,-80.8,-82.8,-221.3,-183.0,-60.3,-59.4,-59.7,-102.7,-1071.5,-721.7,-142.3,660.8,-207.3,158.7,-907.8,63.4,-672.9,-2.4,-34.5,-51.9,-144.7,0,0,2616,0,249,0,
1.4533,-92.4,-97.8,-82.9,-86.1,-225.4,-188.4,-62.7,-60.0,-64.2,-103.6,-1075.1,-729.5,-141.4,662.3,-207.9,171.0,-907.5,61.0,-684.9,-2.1,-23.7,-48.0,-144.1,0,0,2622,0,250,0,
1.4567,-93.0,-94.8,-77.8,-87.0,-232.6,-188.4,-65.0,-59.1,-63.9,-101.8,-1079.3,-727.4,-137.8,667.1,-209.4,185.7,-906.0,70.3,-691.7,-2.4,-26.1,-47.1,-143.2,0,0,2628,0,251,0,
1.4600,-91.2,-100.8,-85.3,-92.1,-237.1,-189.0,-62.7,-62.4,-59.1,-112.6,-1082.3,-729.8,-146.5,662.0,-213.6,190.2,-906.9,55.6,-679.5,-2.7,-29.1,-49.5,-139.1,0,0,2634,0,252,0,
1.4633,-96.9,-99.0,-79.3,-90.6,-234.7,-190.2,-63.8,-63.9,-65.4,-110.8,-1085.8,-731.3,-151.3,665.3,-212.7,165.9,-904.8,61.9,-684.0,-2.4,-32.1,-52.2,-142.9,0,0,2640,0,253,0,
1.4667,-96.9,-96.9,-76.3,-87.3,-232.6,-189.3,-61.5,-59.7,-59.1,-105.1,-1080.5,-743.0,-145.6,661.4,-213.3,168.9,-900.9,66.1,-679.8,-2.4,-27.0,-48.3,-145.9,0,0,2646,0,254,0,
1.4700,-93.9,-93.6,-76.9,-90.3,-235.3,-190.5,-62.7,-60.6,-63.9,-103.9,-1086.7,-732.8,-129.8,674.6,-210.0,172.8,-897.3,62.5,-687.3,-2.7,-35.1,-47.7,-150.7,0,0,2652,0,255,0,
1.4733,-93.6,-98.4,-78.7,-88.5,-224.5,-185.1,-64.4,-61.2,-69.6,-103.0,-1077.2,-732.8,-141.1,662.0,-215.4,177.9,-896.4,58.6,-675.6,-2.1,-32.7,-51.6,-142.3,0,0,2658,0,0,0,
1.4767,-91.5,-92.7,-75.7,-87.9,-233.8,-189.6,-65.6,-61.2,-64.8,-100.6,-1075.4,-719.0,-136.6,665.3,-210.3,180.0,-896.4,67.0,-687.3,-2.1,-27.6,-52.8,-148.6,0,0,2664,0,1,0,
1.4800,-89.4,-95.7,-78.7,-87.3,-228.7,-188.1,-59.4,-60.3,-60.6,-105.7,-1076.6,-728.9,-141.1,662.9,-212.4,181.8,-896.1,62.5,-679.2,-1.8,-24.3,-45.0,-141.1,0,0,2670,0,2,0,
1.4833,-85.5,-96.6,-78.4,-87.3,-229.0,-187.8,-65.0,-61.5,-66.9,-106.6,-1091.2,-728.6,-135.8,669.8,-215.7,181.5,-896.4,65.2,-694.4,-2.4,-34.8,-49.5,-148.3,0,0,2676,0,3,0,
1.4867,-85.5,-93.0,-79.9,-84.0,-226.9,-181.5,-58.2,-57.6,-61.2,-104.8,-1079.9,-729.8,-136.4,667.7,-212.4,180.3,-895.8,59.5,-681.6,-2.4,-29.1,-48.0,-138.5,0,0,2682,0,4,0,
1.4900,-77.1,-87.6,-75.7,-85.2,-231.7,-180.0,-57.9,-57.0,-61.8,-101.2,-1079.0,-719.3,-122.6,679.7,-203.4,179.7,-895.5,67.0,-678.9,-2.4,-21.3,-41.7,-134.9,0,0,2688,0,5,0,
1.4933,-90.0,-102.3,-88.6,-94.8,-236.2,-190.5,-67.1,-69.6,-69.9,-113.2,-1083.2,-727.4,-137.8,662.3,-216.0,181.5,-893.4,48.1,-673.8,-2.4,-33.0,-51.6,-142.0,0,0,2694,0,6,0,
1.4967,-89.7,-98.1,-84.4,-93.0,-237.4,-190.2,-69.2,-69.9,-72.6,-108.7,-1083.7,-730.4,-137.8,660.5,-218.7,186.3,-894.9,60.1,-684.0,-2.1,-36.6,-48.9,-145.3,0,0,2700,0,7,0,
1.5000,-95.7,-104.7,-88.6,-95.1,-235.9,-188.4,-67.7,-69.0,-71.7,-115.0,-1081.1,-730.4,-140.2,658.7,-216.9,194.1,-899.4,53.2,-684.6,-2.1,-34.2,-51.6,-144.4,0,0,2706,0,8,0,
1.5033,-94.2,-100.8,-86.5,-93.0,-235.3,-190.5,-68.3,-68.4,-70.5,-112.0,-1084.3,-732.2,-135.5,662.0,-221.7,192.9,-900.0,57.4,-687.6,-2.1,-36.6,-50.4,-148.0,0,0,2712,0,9,0,
1.5067,-95.1,-100.8,-88.9,-95.7,-240.1,-191.1,-67.1,-66.9,-72.0,-116.5,-1086.1,-734.9,-133.4,667.1,-216.0,163.5,-899.7,54.4,-685.2,-2.1,-32.4,-45.3,-146.2,0,0,2718,0,10,0,
1.5100,-93.0,-98.4,-88.9,-93.6,-240.4,-189.0,-67.7,-71.4,-70.2,-112.6,-1086.4,-736.4,-138.7,661.1,-217.2,170.7,-897.6,53.5,-688.5,-2.1,-34.5,-49.2,-149.2,0,0,2724,0,11,0,
1.5133,-92.7,-98.7,-88.0,-94.8,-241.9,-190.5,-68.3,-70.8,-75.9,-114.1,-1089.1,-738.5,-142.6,663.5,-216.6,174.3,-896.7,51.1,-690.3,-2.4,-37.8,-55.2,-152.5,0,0,2730,0,12,0,
1.5167,-93.0,-99.6,-89.8,-94.5,-238.6,-193.8,-69.2,-72.6,-70.2,-118.6,-1095.7,-740.6,-139.6,662.9,-217.8,175.2,-897.6,49.3,-700.4,-2.1,-39.6,-57.9,-154.3,0,0,2736,0,13,0,
1.5200,-93.6,-95.4,-83.5,-92.4,-235.6,-193.5,-71.6,-72.3,-64.8,-109.9,-1086.1,-740.3,-141.1,666.5,-215.7,180.3,-897.9,57.7,-691.1,-2.1,-32.1,-57.3,-148.9,0,0,2742,0,14,0,
1.5233,-84.9,-89.4,-79.6,-90.6,-230.5,-188.7,-68.6,-71.1,-54.3,-109.3,-1084.6,-728.3,-133.7,673.4,-210.6,187.2,-895.2,58.3,-694.1,-1.8,-29.4,-56.7,-143.5,0,0,2748,0,15,0,
1.5267,-88.8,-94.8,-82.6,-93.3,-234.7,-188.7,-68.6,-72.6,-63.6,-115.9,-1090.6,-723.5,-130.4,671.6,-210.0,169.2,-895.8,55.0,-691.7,-1.8,-30.3,-50.1,-144.1,0,0,2754,0,16,0,
1.5300,-86.1,-91.5,-82.3,-93.3,-234.7,-188.4,-65.6,-69.6,-69.3,-109.9,-1084.0,-724.4,-128.3,668.0,-210.3,187.2,-896.7,63.1,-687.3,-2.1,-30.6,-44.7,-144.4,0,0,2760,0,17,0,
1.5333,-82.2,-84.9,-72.1,-84.9,-225.1,-184.8,-65.6,-60.9,-61.8,-99.4,-1075.7,-713.0,-120.8,675.2,-212.4,193.2,-898.5,73.8,-670.2,-2.1,-25.8,-46.5,-136.1,0,0,2766,0,18,0,
1.5367,-85.2,-93.0,-76.9,-87.0,-232.0,-191.4,-69.2,-63.0,-68.4,-108.7,-1086.4,-725.0,-126.8,674.9,-212.1,194.4,-898.2,61.3,-677.4,-2.4,-29.7,-52.2,-144.4,0,0,2772,0,19,0,
1.5400,-81.9,-90.0,-71.2,-84.0,-229.9,-186.6,-65.0,-60.0,-59.4,-102.4,-1073.3,-715.7,-126.2,676.1,-211.5,177.6,-898.5,71.5,-669.0,-2.1,-21.9,-47.7,-137.3,0,0,2778,0,20,0,
1.5433,-78.3,-90.6,-71.2,-82.5,-228.7,-186.6,-60.3,-62.1,-58.2,-100.6,-1072.4,-719.6,-125.0,680.0,-208.2,165.9,-893.7,68.2,-674.4,-2.7,-28.8,-47.7,-139.1,0,0,2784,0,21,0,
1.5467,-80.1,-85.2,-66.8,-77.7,-223.1,-180.0,-58.5,-57.6,-52.2,-97.3,-1072.4,-710.9,-125.9,674.3,-209.7,161.4,-898.2,76.8,-670.2,-2.1,-24.3,-39.3,-133.4,0,0,2790,0,22,0,
1.5500,-83.7,-92.7,-73.9,-83.4,-232.0,-188.1,-62.1,-63.0,-56.7,-104.5,-1079.9,-727.1,-128.3,673.4,-214.5,176.7,-896.4,65.8,-681.6,-2.7,-26.4,-44.4,-147.7,0,0,2796,0,23,0,
1.5533,-81.0,-86.7,-71.0,-84.6,-227.8,-185.4,-62.4,-60.9,-55.5,-107.8,-1080.2,-719.0,-125.3,674.3,-213.9,177.6,-899.7,68.5,-679.2,-2.4,-27.3,-40.8,-139.7,0,0,2802,0,24,0,
1.5567,-83.7,-88.5,-75.1,-89.1,-238.0,-193.2,-69.5,-62.4,-61.5,-111.4,-1080.2,-722.9,-126.5,671.9,-220.2,194.1,-897.6,67.9,-681.0,-2.7,-27.0,-50.7,-147.1,0,0,2808,0,25,0,
1.5600,-82.2,-88.5,-76.9,-89.4,-230.5,-186.0,-65.3,-61.8,-61.8,-106.9,-1074.2,-716.0,-125.3,677.6,-214.8,175.5,-899.1,68.8,-676.8,-2.1,-20.1,-45.3,-139.1,0,0,2814,0,26,0,
1.5633,-84.3,-92.1,-79.0,-93.6,-232.9,-191.4,-67.4,-62.7,-67.5,-111.7,-1092.4,-718.1,-125.9,681.8,-213.9,169.8,-898.8,63.4,-688.5,-2.1,-31.8,-53.1,-147.1,0,0,2820,0,27,0,
1.5667,-81.9,-89.1,-73.6,-83.7,-222.2,-183.0,-64.7,-60.0,-52.2,-100.6,-1078.4,-715.7,-131.6,665.0,-213.0,179.4,-896.1,72.9,-677.4,-2.4,-15.6,-45.0,-132.8,0,0,2826,0,28,0,
1.5700,-84.0,-90.9,-75.1,-87.9,-229.0,-186.0,-66.8,-64.8,-54.9,-100.0,-1081.1,-720.5,-130.1,669.2,-212.1,168.0,-896.7,70.0,-671.1,-2.4,-22.8,-44.1,-139.4,0,0,2832,0,29,0,
1.5733,-90.3,-94.8,-80.8,-88.8,-227.8,-188.4,-69.8,-67.5,-53.1,-104.5,-1078.4,-723.8,-128.0,673.1,-210.9,184.8,-897.9,66.1,-667.0,-2.4,-30.6,-42.9,-143.5,0,0,2838,0,30,0,
1.5767,-85.5,-87.0,-76.6,-83.7,-227.5,-188.4,-66.8,-63.9,-52.5,-103.0,-1080.8,-716.6,-117.8,672.2,-209.1,180.6,-897.6,73.2,-676.2,-2.1,-25.8,-47.1,-146.5,0,0,2844,0,31,0,
1.5800,-81.0,-84.3,-76.6,-87.9,-223.6,-185.7,-69.5,-60.6,-54.3,-101.2,-1076.3,-720.2,-118.7,677.0,-206.1,170.1,-897.9,70.0,-675.3,-2.1,-24.9,-47.1,-146.5,0,0,2850,0,32,0,
1.5833,-81.6,-87.0,-76.0,-88.2,-229.6,-186.3,-65.0,-60.3,-55.8,-103.9,-1077.5,-722.3,-120.5,673.7,-210.6,183.3,-902.4,67.9,-676.2,-2.1,-29.7,-50.1,-149.5,0,0,2856,0,33,0,
1.5867,-81.0,-92.4,-82.3,-93.0,-233.2,-186.6,-64.4,-65.7,-57.6,-112.3,-1085.2,-724.4,-118.7,675.2,-210.9,186.9,-897.9,60.4,-683.7,-2.4,-33.0,-53.1,-154.0,0,0,2862,0,34,0,
1.5900,-81.0,-89.1,-76.9,-90.9,-230.8,-187.8,-64.4,-62.7,-54.0,-109.3,-1089.7,-723.5,-117.5,676.4,-210.0,174.9,-897.3,63.7,-690.9,-2.1,-29.1,-52.5,-151.0,0,0,2868,0,35,0,
1.5933,-79.5,-89.4,-77.8,-93.0,-232.3,-189.6,-63.0,-65.4,-57.3,-109.6,-1085.2,-722.9,-119.0,678.8,-211.5,198.0,-894.9,62.5,-690.9,-2.1,-30.0,-51.0,-148.6,0,0,2874,0,36,0,
1.5967,-72.3,-83.7,-73.3,-88.8,-224.5,-186.6,-58.2,-60.0,-53.7,-108.1,-1075.7,-722.9,-116.3,678.5,-211.5,186.3,-891.6,66.7,-680.4,-1.8,-32.4,-43.2,-146.5,0,0,2880,0,37,0,
1.6000,-80.7,-89.4,-79.0,-94.5,-229.3,-192.9,-63.2,-65.4,-61.2,-114.4,-1084.9,-728.9,-124.1,669.5,-212.1,162.0,-892.2,60.7,-683.1,-2.1,-32.4,-48.9,-149.5,0,0,2886,0,38,0,
1.6033,-79.5,-87.6,-78.7,-91.2,-227.5,-188.4,-60.0,-64.5,-57.6,-110.2,-1086.4,-723.2,-120.5,671.3,-213.9,181.8,-891.6,57.4,-672.3,-2.4,-34.5,-46.5,-148.3,0,0,2892,0,39,0,
1.6067,-84.9,-93.6,-80.5,-88.2,-225.7,-190.8,-61.5,-64.8,-61.8,-110.2,-1080.8,-723.8,-125.6,665.9,-211.2,186.3,-894.6,58.3,-665.2,-2.4,-31.8,-44.4,-145.9,0,0,2898,0,40,0,
1.6100,-84.6,-90.0,-81.1,-89.4,-231.7,-193.2,-65.6,-67.8,-67.5,-111.7,-1083.5,-731.9,-134.0,670.1,-209.1,168.0,-892.5,59.8,-669.3,-2.1,-43.2,-51.6,-153.7,0,0,2904,0,41,0,
1.6133,-88.2,-89.7,-82.0,-88.2,-228.4,-190.5,-63.5,-69.6,-63.0,-109.6,-1075.7,-738.5,-135.2,662.6,-215.1,201.0,-887.7,59.5,-670.2,-2.1,-37.8,-47.4,-147.1,0,0,2910,0,42,0,
1.6167,-88.5,-90.9,-80.5,-87.6,-231.4,-189.0,-66.2,-69.6,-64.8,-104.5,-1074.5,-728.3,-130.1,665.6,-214.5,184.8,-889.2,68.2,-670.5,-2.7,-35.1,-50.7,-153.1,0,0,2916,0,43,0,
1.6200,-86.1,-89.1,-77.8,-87.9,-233.8,-190.2,-63.8,-69.6,-66.3,-107.5,-1075.4,-721.1,-124.4,667.4,-210.0,158.7,-891.6,63.4,-672.9,-2.4,-37.2,-52.8,-154.3,0,0,2922,0,44,0,
1.6233,-88.5,-92.4,-82.3,-94.5,-238.0,-194.4,-66.8,-71.4,-62.1,-110.5,-1082.3,-720.8,-125.9,671.6,-212.4,174.3,-889.5,55.9,-673.5,-2.4,-36.6,-56.7,-158.2,0,0,2928,0,45,0,
1.6267,-90.9,-93.6,-84.1,-92.7,-238.0,-193.8,-71.3,-69.9,-65.4,-113.2,-1082.0,-723.5,-131.9,665.9,-219.9,179.7,-890.4,57.1,-671.7,-1.5,-36.6,-54.0,-157.9,0,0,2934,0,46,0,
1.6300,-87.3,-87.3,-79.3,-92.7,-237.1,-190.5,-69.8,-66.9,-62.7,-110.5,-1087.0,-724.7,-125.0,671.3,-216.9,168.3,-889.5,60.7,-679.5,-2.1,-40.2,-50.7,-157.9,0,0,2940,0,47,0,
1.6333,-83.1,-84.6,-78.4,-94.8,-233.5,-183.6,-65.9,-65.4,-63.9,-109.6,-1084.9,-724.7,-124.1,667.4,-216.6,176.4,-890.7,65.8,-675.3,-2.4,-35.7,-47.7,-153.4,0,0,2946,0,48,0,
1.6367,-82.5,-87.0,-80.5,-95.4,-233.5,-183.0,-63.8,-63.6,-61.8,-116.2,-1092.7,-728.9,-127.1,665.9,-214.5,182.1,-891.6,61.3,-682.5,-2.4,-34.2,-47.4,-157.0,0,0,2952,0,49,0,
1.6400,-85.2,-87.6,-82.0,-93.9,-235.3,-189.6,-64.7,-65.7,-63.3,-113.2,-1090.0,-733.1,-131.0,665.6,-218.1,189.0,-890.7,61.3,-681.3,-2.1,-37.5,-46.2,-157.9,0,0,2958,0,50,0,
1.6433,-86.1,-89.1,-80.2,-92.1,-236.2,-186.0,-65.6,-66.3,-65.4,-106.9,-1085.2,-732.2,-127.7,662.6,-220.8,196.8,-888.9,63.4,-667.6,-2.4,-35.7,-45.9,-154.6,0,0,2964,0,51,0,
1.6467,-84.9,-88.8,-81.1,-86.7,-232.3,-181.8,-63.0,-66.0,-69.3,-110.5,-1084.0,-740.6,-129.5,663.5,-225.3,179.4,-889.5,63.1,-666.7,-2.4,-32.1,-40.8,-150.4,0,0,2970,0,52,0,
1.6500,-89.7,-87.3,-76.0,-84.3,-226.6,-180.0,-63.8,-61.8,-63.3,-104.5,-1081.4,-732.2,-132.8,659.6,-221.1,165.6,-887.1,67.6,-662.5,-2.4,-34.8,-47.1,-151.0,0,0,2976,0,53,0,
1.6533,-86.4,-88.8,-76.6,-89.1,-235.9,-191.7,-66.5,-69.0,-63.0,-108.4,-1087.3,-727.7,-125.9,675.2,-210.0,165.6,-887.4,67.9,-674.1,-2.4,-35.7,-49.8,-157.9,0,0,2982,0,54,0,
1.6567,-87.0,-85.5,-74.2,-84.3,-229.0,-184.5,-63.2,-66.6,-62.7,-102.7,-1079.6,-724.7,-125.0,664.7,-214.2,167.4,-885.0,62.8,-660.4,-2.1,-35.1,-42.9,-149.8,0,0,2988,0,55,0,
1.6600,-81.0,-79.2,-66.8,-79.2,-224.2,-181.8,-57.6,-59.1,-56.7,-97.0,-1076.0,-714.2,-119.0,670.7,-208.2,174.9,-883.5,75.0,-662.8,-2.7,-24.9,-36.9,-142.0,0,0,2994,0,56,0,
1.6633,-78.0,-79.8,-64.4,-75.0,-226.6,-178.2,-61.8,-58.8,-48.3,-88.7,-1073.0,-709.4,-122.0,667.7,-215.4,175.5,-881.4,79.5,-668.7,-2.1,-25.5,-42.3,-146.5,0,0,3000,0,57,0,
1.6667,-81.3,-81.0,-68.6,-79.2,-225.1,-177.3,-58.2,-61.5,-51.9,-96.7,-1076.6,-716.0,-126.5,667.7,-212.4,177.9,-884.1,77.7,-667.0,-1.8,-28.2,-43.5,-143.5,0,0,3006,0,58,0,
1.6700,-79.8,-84.9,-75.4,-85.5,-229.3,-182.4,-65.0,-63.3,-62.1,-103.3,-1083.5,-719.6,-125.3,665.6,-216.0,178.5,-884.1,69.7,-660.7,-1.8,-32.1,-49.2,-146.2,0,0,3012,0,59,0,
1.6733,-75.3,-79.8,-66.2,-82.2,-223.6,-177.9,-59.4,-61.2,-53.7,-95.3,-1071.2,-710.6,-119.0,669.2,-211.2,176.4,-885.3,76.8,-652.6,-2.4,-23.7,-40.2,-139.1,0,0,3018,0,60,0,
1.6767,-76.8,-83.7,-70.1,-86.1,-227.5,-182.7,-62.7,-63.9,-59.7,-98.2,-1078.1,-711.5,-120.2,670.4,-217.5,177.0,-882.6,71.7,-662.2,-2.1,-27.9,-48.6,-148.6,0,0,3024,0,61,0,
1.6800,-90.3,-96.0,-82.9,-96.3,-237.7,-189.6,-67.7,-71.4,-64.2,-113.5,-1090.3,-721.1,-131.0,662.3,-222.0,187.5,-882.9,60.1,-676.2,-2.4,-39.0,-54.3,-151.6,0,0,3030,0,62,0,
1.6833,-87.9,-92.1,-80.2,-91.5,-230.2,-184.5,-65.0,-66.3,-59.7,-109.3,-1086.7,-720.5,-126.2,665.0,-220.8,181.8,-884.4,59.2,-668.4,-2.4,-35.7,-42.6,-143.8,0,0,3036,0,63,0,
1.6867,-89.1,-91.2,-78.1,-91.2,-234.4,-189.6,-68.0,-66.3,-59.4,-104.5,-1082.0,-718.7,-129.5,664.7,-219.3,164.1,-884.7,67.9,-666.4,-2.4,-25.2,-47.4,-150.1,0,0,3042,0,64,0,
1.6900,-87.9,-90.6,-78.4,-87.0,-229.3,-188.4,-65.6,-62.7,-63.3,-100.3,-1081.1,-719.9,-126.8,665.0,-214.2,174.3,-885.3,69.1,-658.6,-2.7,-30.6,-46.8,-140.0,0,0,3048,0,65,0,
1.6933,-88.2,-93.6,-80.8,-94.5,-231.7,-193.2,-68.0,-67.2,-58.2,-108.7,-1087.0,-718.7,-128.6,665.6,-219.0,175.8,-879.6,58.3,-668.7,-2.7,-31.2,-48.9,-145.6,0,0,3054,0,66,0,
1.6967,-88.8,-93.9,-76.6,-92.7,-233.8,-189.9,-69.2,-69.0,-65.7,-100.9,-1081.4,-723.2,-128.0,666.8,-220.8,177.9,-881.1,64.9,-662.5,-2.1,-27.9,-48.9,-148.0,0,0,3060,0,67,0,
1.7000,-83.4,-91.8,-76.6,-92.1,-230.8,-190.2,-67.4,-66.3,-61.5,-105.4,-1081.7,-714.8,-125.0,662.6,-216.9,204.3,-877.2,64.9,-666.4,-2.1,-25.5,-46.2,-147.1,0,0,3066,0,68,0,
1.7033,-81.3,-88.5,-71.0,-86.4,-225.1,-185.1,-62.4,-61.5,-52.8,-98.5,-1082.9,-716.9,-124.4,665.0,-213.9,176.7,-880.5,67.9,-661.3,-2.1,-24.0,-36.6,-146.2,0,0,3072,0,69,0,
1.7067,-84.3,-90.3,-76.3,-90.3,-229.3,-188.7,-64.1,-65.1,-61.8,-102.7,-1080.8,-722.9,-131.6,661.7,-215.7,165.6,-879.6,65.5,-660.4,-2.7,-28.8,-38.1,-149.2,0,0,3078,0,70,0,
1.7100,-69.0,-70.2,-59.6,-74.1,-214.1,-171.6,-48.3,-50.7,-42.9,-88.4,-1064.3,-707.6,-113.3,681.2,-207.6,168.9,-877.8,81.0,-640.7,-2.4,-11.4,-30.6,-130.1,0,0,3084,0,71,0,
1.7133,-76.5,-77.4,-71.2,-85.8,-223.3,-182.7,-57.3,-60.3,-50.1,-98.5,-1075.7,-714.2,-119.6,674.0,-211.8,188.7,-874.2,72.9,-657.7,-2.7,-19.5,-34.2,-138.5,0,0,3090,0,72,0,
1.7167,-77.4,-87.3,-76.9,-86.7,-223.9,-185.7,-58.8,-65.1,-51.9,-104.8,-1082.9,-722.3,-119.3,674.0,-213.0,176.4,-869.1,63.7,-656.5,-2.7,-27.0,-36.0,-141.4,0,0,3096,0,73,0,
1.7200,-75.6,-78.3,-68.3,-80.4,-214.7,-176.4,-59.1,-58.2,-48.0,-95.6,-1070.9,-714.5,-118.7,670.1,-213.3,173.4,-871.2,78.6,-653.5,-2.4,-19.2,-31.8,-137.3,0,0,3102,0,74,0,
1.7233,-71.4,-76.8,-65.3,-77.4,-214.7,-176.4,-54.0,-53.1,-45.3,-89.3,-1067.0,-706.4,-118.1,675.2,-209.4,177.3,-865.8,80.7,-652.0,-2.1,-17.7,-25.2,-133.4,0,0,3108,0,75,0,
1.7267,-76.5,-79.2,-70.7,-84.6,-221.6,-179.4,-57.0,-55.5,-42.9,-95.6,-1073.9,-710.3,-123.8,677.9,-206.1,203.1,-866.1,74.7,-656.8,-1.8,-17.1,-30.0,-138.2,0,0,3114,0,76,0,
1.7300,-85.5,-82.5,-72.4,-90.3,-228.1,-183.3,-63.5,-61.2,-55.8,-97.9,-1085.2,-727.1,-136.4,665.9,-213.6,213.6,-864.6,69.7,-660.1,-2.1,-28.5,-41.4,-142.6,0,0,3120,0,77,0,
1.7333,-83.4,-82.8,-71.0,-91.2,-233.5,-182.1,-62.1,-62.4,-53.4,-99.4,-1084.0,-722.3,-129.5,671.0,-214.8,159.6,-865.2,73.2,-655.9,-2.1,-21.6,-39.9,-142.9,0,0,3126,0,78,0,
1.7367,-81.6,-88.5,-74.2,-97.2,-238.3,-186.6,-64.1,-66.6,-57.0,-104.2,-1088.5,-721.4,-122.3,668.0,-222.0,174.3,-864.9,65.8,-659.2,-2.7,-24.3,-39.3,-145.0,0,0,3132,0,79,0,
1.7400,-78.3,-83.1,-72.7,-90.6,-232.0,-182.4,-64.7,-63.0,-57.6,-101.2,-1084.9,-716.0,-115.1,672.2,-216.3,150.0,-866.1,73.5,-662.2,-2.1,-28.8,-38.4,-143.8,0,0,3138,0,80,0,
1.7433,-81.9,-86.4,-72.4,-93.0,-233.8,-187.5,-70.1,-65.7,-57.6,-101.5,-1084.3,-718.4,-124.7,668.6,-216.0,161.7,-864.0,71.7,-659.8,-2.4,-21.9,-46.5,-148.3,0,0,3144,0,81,0,
1.7467,-83.1,-90.0,-72.1,-90.3,-233.8,-183.3,-69.5,-63.6,-60.6,-100.6,-1079.9,-720.8,-123.5,661.7,-218.1,175.8,-861.6,69.7,-658.0,-2.4,-22.5,-50.7,-142.3,0,0,3150,0,82,0,
1.7500,-81.9,-91.8,-75.1,-91.8,-236.5,-186.0,-69.5,-64.5,-60.9,-101.5,-1081.4,-719.3,-123.5,663.5,-218.4,165.6,-864.0,65.2,-656.8,-2.1,-38.4,-45.6,-144.7,0,0,3156,0,83,0,
1.7533,-80.7,-85.5,-71.5,-86.1,-228.1,-179.4,-68.9,-63.0,-53.1,-98.2,-1075.4,-714.5,-117.8,665.9,-217.8,182.7,-869.4,67.0,-655.3,-2.1,-24.0,-42.9,-140.8,0,0,3162,0,84,0,
1.7567,-76.2,-83.7,-68.0,-84.9,-223.9,-177.3,-65.6,-59.4,-53.1,-98.5,-1075.7,-711.8,-113.6,677.6,-211.5,176.1,-869.1,68.5,-661.6,-2.1,-22.2,-32.7,-140.0,0,0,3168,0,85,0,
1.7600,-72.6,-77.4,-63.8,-78.6,-217.1,-175.2,-62.4,-53.7,-47.1,-96.2,-1069.4,-703.1,-109.4,675.2,-211.2,174.9,-871.5,72.6,-652.0,-2.4,-23.4,-29.4,-134.6,0,0,3174,0,86,0,
1.7633,-74.4,-73.5,-61.7,-73.8,-215.6,-172.8,-61.8,-52.2,-38.7,-91.7,-1072.1,-696.7,-108.8,675.2,-213.0,197.1,-881.7,70.3,-646.6,-1.8,-16.5,-33.9,-134.9,0,0,3180,0,87,0,
1.7667,-75.6,-76.5,-63.5,-75.6,-222.8,-176.1,-64.7,-54.0,-50.7,-92.9,-1074.2,-702.5,-116.0,676.7,-212.1,177.0,-885.0,76.8,-656.5,-2.1,-21.9,-35.4,-143.2,0,0,3186,0,88,0,
1.7700,-80.7,-78.6,-67.1,-78.9,-222.5,-178.5,-65.6,-57.0,-47.1,-97.3,-1078.4,-701.8,-119.9,674.3,-216.0,163.5,-889.2,64.0,-661.6,-2.1,-29.7,-37.2,-143.2,0,0,3192,0,89,0,
1.7733,-81.0,-83.1,-73.6,-85.8,-232.3,-182.1,-64.4,-61.2,-48.6,-105.7,-1084.6,-704.3,-113.3,676.4,-219.9,178.2,-885.3,58.6,-661.9,-2.1,-33.0,-32.7,-152.5,0,0,3198,0,90,0,
1.7767,-81.0,-78.9,-66.5,-80.7,-222.2,-177.0,-62.4,-60.3,-51.9,-96.2,-1082.0,-702.1,-121.4,663.8,-223.5,164.7,-886.5,70.9,-653.2,-2.1,-24.9,-28.8,-151.3,0,0,3204,0,91,0,
1.7800,-81.0,-80.4,-66.5,-84.3,-229.3,-180.9,-66.2,-64.5,-45.6,-97.6,-1079.9,-708.2,-118.4,664.7,-225.0,175.5,-888.3,68.5,-656.5,-2.7,-21.3,-34.8,-152.8,0,0,3210,0,92,0,
1.7833,-80.7,-80.4,-63.2,-82.5,-226.6,-180.0,-69.5,-63.3,-54.6,-95.0,-1078.4,-708.5,-117.8,664.1,-229.8,178.8,-885.6,70.9,-660.7,-2.1,-21.9,-46.8,-151.6,0,0,3216,0,93,0,
1.7867,-81.6,-81.0,-64.1,-83.1,-230.2,-180.6,-64.7,-62.7,-45.9,-96.2,-1079.0,-701.8,-116.9,663.2,-228.0,170.4,-887.1,72.6,-661.3,-2.1,-18.9,-45.6,-152.8,0,0,3222,0,94,0,
1.7900,-85.8,-85.2,-65.9,-83.4,-229.3,-181.8,-70.4,-65.1,-49.8,-97.0,-1082.9,-703.4,-120.8,662.6,-228.6,176.4,-880.5,73.8,-664.0,-1.8,-34.2,-48.0,-155.2,0,0,3228,0,95,0,
1.7933,-79.2,-79.8,-66.8,-83.4,-226.6,-179.7,-64.7,-57.3,-48.9,-95.9,-1076.9,-700.9,-107.6,672.2,-220.8,169.5,-878.1,75.3,-655.0,-2.4,-23.4,-37.2,-147.1,0,0,3234,0,96,0,
1.7967,-78.9,-83.1,-68.0,-83.4,-227.8,-180.9,-65.6,-60.6,-50.7,-93.8,-1077.8,-704.6,-114.2,663.8,-219.6,177.0,-872.1,73.8,-656.8,-1.8,-14.7,-36.3,-144.4,0,0,3240,0,97,0,
1.8000,-82.2,-90.3,-74.5,-88.8,-230.2,-184.5,-64.4,-61.8,-51.6,-98.8,-1078.4,-704.9,-116.9,664.4,-219.3,177.3,-873.9,65.2,-657.7,-2.7,-23.4,-31.8,-142.0,0,0,3246,0,98,0,
1.8033,-84.6,-86.4,-74.2,-92.1,-231.7,-182.1,-68.3,-63.0,-48.3,-96.2,-1080.2,-704.6,-119.0,663.8,-223.2,178.5,-872.4,68.5,-656.5,-2.1,-20.1,-34.8,-138.8,0,0,3252,0,99,0,
1.8067,-84.9,-87.3,-78.1,-93.6,-235.6,-183.9,-70.4,-66.0,-51.9,-99.4,-1083.7,-697.9,-122.9,663.2,-224.4,190.2,-875.1,67.6,-660.1,-2.4,-18.3,-37.8,-146.2,0,0,3258,0,100,0,
1.8100,-89.4,-87.3,-73.6,-90.6,-229.6,-183.0,-69.8,-68.1,-60.3,-95.0,-1079.9,-714.8,-122.3,662.6,-222.6,185.7,-872.1,70.3,-658.9,-2.4,-18.3,-39.0,-144.7,0,0,3264,0,101,0,
1.8133,-86.1,-86.4,-73.0,-88.2,-230.8,-185.4,-72.2,-67.5,-53.1,-100.3,-1082.3,-704.9,-119.0,667.4,-223.5,183.6,-870.3,64.9,-666.1,-1.8,-23.7,-39.6,-146.5,0,0,3270,0,102,0,
1.8167,-82.2,-78.9,-64.1,-80.4,-223.6,-175.2,-63.8,-58.5,-49.2,-93.8,-1073.3,-703.4,-113.3,665.9,-222.3,156.9,-869.7,73.2,-654.1,-2.4,-17.1,-29.7,-140.0,0,0,3276,0,103,0,
1.8200,-86.4,-80.4,-62.3,-78.6,-223.1,-173.1,-63.2,-60.0,-60.3,-91.7,-1069.1,-710.6,-127.1,657.8,-223.8,179.1,-873.0,74.1,-649.9,-2.4,-23.7,-39.6,-139.4,0,0,3282,0,104,0,
1.8233,-84.6,-80.7,-67.7,-83.1,-225.1,-179.4,-66.8,-63.6,-49.2,-96.2,-1080.8,-707.3,-121.4,668.0,-220.5,183.9,-871.5,72.0,-652.9,-2.1,-23.7,-44.4,-140.8,0,0,3288,0,105,0,
1.8267,-81.3,-80.4,-63.5,-77.7,-221.9,-176.1,-68.0,-61.5,-52.8,-91.7,-1072.7,-695.5,-119.3,666.8,-222.0,176.4,-869.4,80.7,-646.3,-2.1,-18.3,-46.2,-135.5,0,0,3294,0,106,0,
1.8300,-77.7,-77.1,-62.6,-79.5,-223.1,-177.9,-65.9,-61.2,-51.6,-88.7,-1071.8,-696.4,-114.2,670.4,-217.2,195.0,-870.9,79.5,-653.5,-2.1,-18.0,-45.9,-135.8,0,0,3300,0,107,0,
1.8333,-79.5,-78.3,-63.2,-80.4,-221.6,-181.2,-70.7,-65.1,-54.6,-86.6,-1069.1,-698.2,-117.5,665.6,-222.3,175.2,-873.3,78.3,-650.5,-2.4,-18.0,-46.5,-136.7,0,0,3306,0,108,0,
1.8367,-83.7,-79.8,-69.8,-84.0,-224.8,-182.4,-70.1,-68.4,-56.7,-92.9,-1074.2,-700.3,-117.8,662.6,-220.5,163.2,-872.1,72.9,-656.2,-2.4,-27.6,-47.7,-138.5,0,0,3312,0,109,0,
1.8400,-82.2,-82.8,-75.4,-86.7,-231.7,-186.6,-72.2,-68.4,-65.4,-96.7,-1079.0,-705.5,-122.9,661.1,-219.6,169.8,-873.3,65.8,-663.7,-2.4,-25.5,-44.1,-142.6,0,0,3318,0,110,0,
1.8433,-83.7,-79.8,-70.4,-83.4,-228.1,-180.0,-68.0,-65.1,-55.2,-88.4,-1075.7,-704.0,-120.5,663.8,-220.8,180.0,-871.2,74.1,-663.1,-2.1,-21.0,-44.1,-140.0,0,0,3324,0,111,0,
1.8467,-84.9,-78.9,-68.3,-78.3,-222.5,-178.2,-68.0,-62.7,-51.9,-89.6,-1068.8,-698.2,-122.9,656.3,-223.8,185.4,-872.7,79.5,-658.0,-2.4,-20.1,-47.4,-138.8,0,0,3330,0,112,0,
1.8500,-77.7,-74.4,-64.1,-76.8,-221.3,-173.7,-63.2,-57.6,-48.9,-91.1,-1074.5,-699.7,-116.0,663.2,-219.6,195.9,-872.7,80.1,-655.0,-2.4,-19.8,-40.8,-134.6,0,0,3336,0,113,0,
1.8533,-84.0,-80.1,-69.2,-78.9,-224.5,-178.5,-66.8,-60.3,-58.2,-92.6,-1075.4,-705.5,-121.7,659.6,-225.0,172.8,-872.7,72.3,-657.4,-2.1,-24.6,-44.7,-139.4,0,0,3342,0,114,0,
1.8567,-85.5,-80.4,-73.9,-81.9,-228.1,-179.7,-73.1,-59.4,-63.3,-105.7,-1087.0,-713.0,-121.7,656.3,-227.4,166.2,-871.8,63.7,-661.3,-2.4,-33.6,-54.0,-143.2,0,0,3348,0,115,0,
1.8600,-87.6,-87.6,-81.1,-89.7,-230.5,-185.7,-74.6,-62.7,-81.9,-121.9,-1102.9,-724.1,-126.8,657.2,-230.1,173.1,-863.1,50.2,-676.2,-2.1,-43.5,-57.6,-152.8,0,0,3354,0,116,0,
1.8633,-80.4,-78.0,-71.0,-80.1,-222.5,-176.1,-71.0,-55.8,-62.1,-111.4,-1090.6,-713.0,-123.5,656.6,-229.8,174.3,-825.0,62.2,-663.1,-2.1,-33.9,-50.4,-147.4,0,0,3360,0,117,0,
1.8667,-81.9,-74.7,-63.2,-74.1,-218.6,-174.9,-71.0,-53.4,-56.4,-95.3,-1078.1,-707.9,-121.7,655.1,-229.2,177.0,-739.8,75.9,-658.0,-2.1,-26.1,-54.9,-144.4,0,0,3366,0,118,0,
1.8700,-78.9,-69.6,-57.5,-72.3,-221.0,-174.0,-69.8,-54.0,-44.7,-89.6,-1075.4,-700.3,-118.7,656.9,-231.0,186.6,-654.6,84.3,-658.3,-2.4,-17.4,-51.6,-145.0,0,0,3372,0,119,0,
1.8733,-81.3,-77.4,-65.9,-81.0,-223.9,-178.8,-71.0,-57.9,-50.4,-95.3,-1078.1,-700.9,-130.1,653.3,-232.2,175.5,-660.6,74.7,-658.0,-2.4,-19.8,-47.1,-142.3,0,0,3378,0,120,0,
1.8767,-80.7,-78.9,-65.9,-80.1,-226.0,-177.0,-68.6,-58.8,-44.7,-97.3,-1080.2,-696.1,-128.0,655.4,-230.7,171.9,-813.6,71.5,-658.9,-2.4,-21.0,-45.0,-140.0,0,0,3384,0,121,0,
1.8800,-81.9,-79.8,-65.6,-83.1,-227.8,-177.3,-67.4,-57.9,-41.4,-95.0,-1078.1,-701.2,-120.8,658.1,-227.1,174.9,-1058.7,73.5,-658.3,-1.8,-19.5,-40.8,-136.1,0,0,3390,0,122,0,
1.8833,-79.2,-78.3,-67.1,-79.8,-226.3,-170.4,-68.9,-55.2,-47.1,-105.1,-1084.6,-700.3,-115.7,657.8,-231.3,177.9,-1375.5,69.4,-664.3,-2.4,-24.9,-42.0,-139.1,0,0,3396,0,123,0,
1.8867,-81.3,-75.6,-66.2,-82.8,-229.0,-174.6,-68.6,-53.1,-36.0,-103.0,-1087.9,-694.9,-115.1,658.7,-222.9,182.7,-1687.5,72.9,-666.7,-1.8,-30.6,-37.2,-143.5,0,0,3402,0,124,0,
1.8900,-75.9,-76.5,-65.0,-81.0,-224.8,-174.3,-68.0,-56.4,-37.8,-98.8,-1084.3,-702.5,-114.5,665.0,-226.8,191.7,-1969.8,69.1,-656.2,-2.4,-30.0,-40.2,-143.5,0,0,3408,0,125,0,
1.8933,-72.9,-77.1,-68.3,-84.0,-227.5,-176.4,-63.0,-55.5,-43.8,-109.0,-1093.6,-703.1,-112.4,669.8,-222.3,186.6,-2071.5,62.2,-661.6,-1.8,-33.0,-36.0,-144.4,0,0,3414,0,126,0,
1.8967,-78.0,-73.8,-68.0,-81.6,-229.3,-179.1,-62.1,-55.5,-39.3,-106.6,-1095.1,-698.5,-112.4,663.5,-225.0,162.3,-2049.6,67.0,-664.6,-2.4,-33.6,-39.6,-142.0,0,0,3420,0,127,0,
1.9000,-75.6,-70.8,-61.4,-80.1,-224.8,-173.7,-61.8,-55.8,-39.6,-105.7,-1087.0,-695.2,-110.6,673.4,-216.0,199.8,-1802.1,69.1,-660.7,-2.1,-24.9,-40.2,-140.0,0,0,3426,0,128,0,
1.9033,-76.5,-77.7,-65.6,-81.3,-223.3,-173.4,-60.6,-54.9,-45.3,-107.5,-1083.7,-704.0,-113.0,671.0,-216.9,205.2,-1515.6,66.4,-658.3,-2.7,-24.6,-39.0,-141.4,0,0,3432,0,129,0,
1.9067,-71.1,-71.7,-58.4,-77.1,-219.8,-169.8,-54.9,-50.1,-34.5,-105.1,-1082.9,-700.0,-114.5,669.8,-216.6,154.5,-1230.9,68.2,-659.2,-2.1,-11.4,-34.2,-131.6,0,0,3438,0,130,0,
1.9100,-73.2,-67.8,-58.7,-71.7,-217.4,-168.0,-54.9,-49.5,-39.6,-96.7,-1075.7,-701.8,-120.2,667.1,-220.8,137.4,-1071.0,79.2,-656.2,-2.4,-11.4,-39.3,-133.4,0,0,3444,0,131,0,
1.9133,-73.2,-65.1,-57.5,-70.5,-219.8,-166.5,-51.9,-46.5,-43.2,-99.4,-1077.5,-700.0,-113.9,663.5,-217.5,170.7,-1076.7,74.1,-665.5,-2.4,-3.9,-39.0,-131.6,0,0,3450,0,132,0,
1.9167,-71.7,-68.7,-59.9,-72.0,-218.0,-167.7,-54.9,-48.9,-39.6,-100.0,-1076.3,-701.8,-112.7,662.6,-217.2,187.8,-1068.9,71.5,-658.3,-2.4,-12.3,-40.8,-134.3,0,0,3456,0,133,0,
1.9200,-77.4,-73.8,-65.9,-75.0,-219.5,-176.1,-58.8,-52.5,-46.8,-103.9,-1079.0,-707.3,-118.4,656.3,-222.9,175.8,-1041.0,67.6,-659.5,-2.1,-14.7,-42.0,-135.2,0,0,3462,0,134,0,
1.9233,-78.9,-72.0,-67.1,-75.6,-218.6,-179.4,-61.8,-52.8,-41.7,-100.3,-1085.2,-708.5,-114.8,658.4,-219.3,181.2,-982.8,72.6,-654.7,-2.4,-16.5,-40.8,-137.9,0,0,3468,0,135,0,
1.9267,-80.4,-78.3,-68.3,-79.5,-223.6,-182.1,-64.1,-59.1,-44.4,-100.9,-1083.5,-710.3,-121.4,652.7,-227.4,173.4,-942.6,67.6,-657.1,-2.1,-10.2,-41.7,-139.7,0,0,3474,0,136,0,
1.9300,-78.0,-75.9,-67.4,-79.5,-223.3,-179.1,-63.8,-58.8,-40.2,-102.7,-1085.2,-704.0,-115.1,655.4,-228.9,165.0,-924.9,68.2,-653.8,-2.4,-17.1,-39.0,-138.2,0,0,3480,0,137,0,
1.9333,-83.1,-81.9,-69.8,-84.9,-228.7,-179.1,-67.4,-60.9,-46.5,-107.8,-1088.2,-707.3,-121.4,651.8,-226.5,178.5,-910.8,66.7,-663.4,-2.7,-14.4,-45.6,-137.9,0,0,3486,0,138,0,
1.9367,-81.6,-79.8,-71.5,-83.7,-226.9,-174.9,-68.9,-60.6,-47.1,-106.0,-1086.7,-710.0,-122.3,654.5,-222.0,166.5,-900.3,66.7,-668.7,-2.4,-19.5,-49.2,-141.1,0,0,3492,0,139,0,
1.9400,-83.4,-82.2,-71.2,-86.7,-231.1,-179.4,-71.3,-62.1,-53.7,-109.6,-1087.9,-716.6,-124.1,653.6,-225.9,176.7,-890.1,65.8,-669.6,-2.1,-21.3,-50.4,-146.8,0,0,3498,0,140,0,
1.9433,-81.0,-82.8,-69.2,-83.4,-226.9,-180.0,-68.9,-59.1,-48.3,-106.3,-1082.9,-715.4,-121.4,661.7,-222.6,173.4,-881.7,71.2,-661.6,-2.4,-12.9,-50.4,-147.7,0,0,3504,0,141,0,
1.9467,-80.7,-80.7,-67.7,-80.7,-223.1,-176.1,-65.6,-57.3,-39.0,-106.3,-1082.6,-710.3,-120.2,664.4,-220.5,177.0,-880.2,66.4,-660.1,-2.1,-14.7,-52.2,-146.5,0,0,3510,0,142,0,
1.9500,-82.2,-84.0,-69.2,-78.0,-220.1,-177.3,-68.3,-59.7,-48.0,-102.7,-1079.3,-734.0,-131.3,660.5,-221.1,176.7,-876.6,64.6,-659.2,-2.1,-14.1,-49.8,-145.6,0,0,3516,0,143,0,
1.9533,-86.7,-83.4,-73.0,-80.7,-221.0,-175.5,-66.2,-63.3,-54.6,-108.4,-1086.4,-734.9,-133.7,655.7,-220.5,180.0,-871.8,64.6,-658.0,-2.1,-17.4,-49.2,-146.2,0,0,3522,0,144,0,
1.9567,-89.7,-85.5,-71.2,-84.0,-223.9,-178.8,-64.7,-65.1,-58.2,-109.9,-1086.4,-726.5,-135.5,653.9,-222.3,184.2,-867.3,59.5,-651.1,-2.1,-21.6,-46.5,-147.7,0,0,3528,0,145,0,
1.9600,-88.2,-83.4,-69.8,-83.4,-218.9,-174.0,-60.3,-63.3,-55.2,-108.4,-1086.4,-715.7,-132.5,660.5,-216.6,186.6,-868.5,64.6,-648.4,-2.4,-19.5,-39.6,-144.7,0,0,3534,0,146,0,
1.9633,-87.3,-82.5,-64.7,-82.5,-222.5,-175.8,-59.7,-58.2,-48.6,-105.4,-1084.6,-722.3,-133.1,658.7,-215.1,178.5,-865.5,61.9,-655.0,-2.1,-19.2,-39.9,-143.5,0,0,3540,0,147,0,
1.9667,-86.7,-80.7,-68.9,-83.7,-225.1,-174.3,-59.1,-62.1,-52.2,-111.7,-1089.1,-721.7,-129.2,663.2,-218.1,180.6,-864.3,58.9,-657.4,-2.1,-20.1,-38.7,-142.6,0,0,3546,0,148,0,
1.9700,-83.7,-81.3,-69.5,-89.1,-227.8,-180.9,-60.6,-64.2,-43.8,-112.3,-1094.8,-718.7,-122.9,668.3,-213.3,189.9,-864.0,60.1,-660.1,-1.8,-20.4,-41.1,-144.1,0,0,3552,0,149,0,
1.9733,-88.2,-86.1,-72.1,-87.9,-224.8,-178.2,-60.3,-65.4,-60.6,-112.3,-1089.1,-722.9,-132.5,662.9,-221.1,173.1,-864.6,54.4,-656.5,-2.1,-23.1,-32.7,-144.4,0,0,3558,0,150,0,
1.9767,-84.9,-87.0,-71.0,-88.8,-224.2,-177.9,-56.4,-65.4,-58.8,-112.6,-1088.8,-721.4,-128.9,665.3,-211.8,169.2,-865.2,54.4,-661.3,-1.8,-18.3,-35.7,-139.7,0,0,3564,0,151,0,
1.9800,-85.2,-81.6,-71.5,-87.6,-227.2,-184.2,-57.3,-65.7,-52.5,-106.9,-1083.2,-716.9,-127.7,662.6,-210.6,183.6,-863.1,61.6,-662.2,-1.8,-17.7,-39.3,-146.5,0,0,3570,0,152,0,
1.9833,-87.9,-88.8,-76.6,-94.2,-232.3,-188.4,-60.9,-68.1,-50.1,-110.2,-1089.4,-724.7,-127.4,670.7,-203.7,193.5,-863.4,56.8,-668.4,-2.1,-17.1,-39.6,-147.4,0,0,3576,0,153,0,
1.9867,-86.7,-85.2,-70.7,-91.5,-228.7,-180.9,-57.6,-64.8,-51.0,-110.5,-1084.0,-719.9,-127.7,665.3,-210.6,177.3,-864.9,61.6,-660.4,-2.4,-14.1,-36.6,-141.4,0,0,3582,0,154,0,
1.9900,-82.8,-85.8,-67.1,-90.9,-231.1,-184.2,-60.6,-64.8,-51.9,-107.5,-1089.4,-718.7,-124.4,669.8,-209.7,165.3,-865.5,66.4,-665.2,-2.1,-20.7,-34.2,-142.3,0,0,3588,0,155,0,
1.9933,-77.4,-81.3,-65.0,-88.2,-222.5,-175.2,-52.5,-59.7,-44.1,-103.6,-1087.3,-718.7,-119.6,671.3,-201.9,174.6,-865.8,70.3,-663.4,-2.1,-10.2,-22.8,-133.7,0,0,3594,0,156,0,
1.9967,-75.3,-75.0,-56.3,-81.9,-219.8,-176.4,-53.1,-55.8,-38.1,-97.0,-1079.6,-709.1,-113.9,673.1,-210.3,179.1,-865.8,78.0,-650.2,-2.1,-8.4,-36.3,-131.9,0,0,3600,0,157,0,
2.0000,-77.7,-78.9,-61.1,-84.9,-219.2,-176.1,-56.4,-59.7,-44.4,-100.0,-1078.7,-710.6,-119.9,670.1,-214.8,176.7,-870.9,73.5,-647.2,-2.1,-12.9,-34.2,-129.2,0,0,3606,0,158,0,
2.0033,-72.3,-75.3,-57.5,-80.7,-218.6,-175.5,-49.8,-54.6,-38.1,-93.8,-1076.9,-703.7,-115.4,667.7,-212.4,189.9,-866.1,79.8,-646.0,-2.1,-7.2,-30.3,-136.1,0,0,3612,0,159,0,
2.0067,-74.4,-74.7,-60.2,-85.5,-218.9,-175.5,-52.2,-54.6,-33.6,-100.9,-1076.6,-699.1,-118.4,669.8,-213.9,170.4,-865.5,75.3,-659.2,-1.8,-10.5,-31.2,-135.5,0,0,3618,0,160,0,
2.0100,-79.5,-78.9,-65.9,-88.5,-220.7,-179.7,-57.0,-61.2,-44.7,-103.9,-1089.4,-723.2,-120.8,663.2,-215.4,168.9,-866.7,71.7,-662.2,-2.4,-14.7,-38.4,-140.5,0,0,3624,0,161,0,
2.0133,-83.7,-79.5,-65.9,-89.1,-222.8,-178.2,-56.4,-60.6,-51.9,-108.7,-1088.2,-724.4,-120.5,664.4,-219.0,175.5,-868.2,66.4,-651.7,-2.1,-13.2,-32.4,-141.1,0,0,3630,0,162,0,
2.0167,-87.9,-85.5,-70.1,-91.2,-224.5,-183.6,-57.3,-62.7,-52.8,-112.0,-1090.3,-720.5,-122.6,661.1,-225.0,189.0,-868.2,57.4,-646.9,-2.1,-22.2,-35.4,-144.4,0,0,3636,0,163,0,
2.0200,-84.6,-82.8,-65.0,-90.9,-224.2,-179.4,-54.6,-63.0,-52.2,-109.6,-1084.3,-710.3,-122.3,664.1,-213.6,195.0,-873.0,66.4,-650.2,-2.1,-6.0,-32.7,-140.8,0,0,3642,0,164,0,
2.0233,-80.7,-81.0,-68.3,-87.9,-223.1,-177.0,-52.5,-63.0,-44.7,-105.4,-1083.2,-708.8,-122.0,664.4,-216.3,171.6,-874.8,72.3,-661.6,-2.4,-17.4,-33.0,-144.4,0,0,3648,0,165,0,
2.0267,-83.1,-80.4,-71.8,-92.4,-223.9,-183.0,-56.1,-63.9,-47.4,-112.9,-1089.4,-710.0,-119.0,667.7,-216.0,175.2,-873.9,64.0,-664.6,-1.8,-18.0,-38.1,-148.6,0,0,3654,0,166,0,
2.0300,-80.4,-79.5,-70.7,-87.9,-224.2,-180.0,-53.1,-60.9,-44.4,-108.7,-1088.5,-709.7,-120.5,665.3,-219.9,189.6,-875.4,67.6,-665.5,-2.1,-23.4,-35.1,-147.1,0,0,3660,0,167,0,
2.0333,-77.1,-74.1,-64.1,-85.2,-221.3,-181.8,-54.9,-59.7,-43.8,-104.8,-1080.2,-709.4,-114.2,663.2,-223.5,159.9,-879.9,71.7,-652.6,-2.4,-18.6,-35.4,-145.0,0,0,3666,0,168,0,
2.0367,-65.7,-58.2,-50.9,-69.3,-203.6,-162.6,-41.1,-46.2,-34.2,-94.7,-1069.1,-696.1,-101.6,680.0,-205.2,177.6,-886.8,83.4,-642.8,-2.1,-2.4,-18.3,-125.6,0,0,3672,0,169,0,
2.0400,-80.7,-73.2,-67.7,-83.7,-217.4,-176.7,-51.3,-59.7,-43.5,-109.9,-1084.6,-703.4,-116.6,667.1,-217.5,215.4,-887.4,64.6,-662.8,-1.8,-14.1,-33.3,-140.8,0,0,3678,0,170,0,
2.0433,-79.2,-73.2,-63.8,-79.2,-214.1,-173.7,-47.4,-57.0,-40.8,-103.6,-1088.5,-705.8,-116.0,667.7,-211.8,172.2,-890.7,72.6,-663.4,-2.1,-8.1,-31.5,-136.7,0,0,3684,0,171,0,
2.0467,-77.7,-74.1,-67.7,-77.7,-214.7,-174.6,-51.0,-54.3,-43.2,-102.7,-1082.9,-707.6,-113.0,667.7,-216.9,149.4,-892.2,70.0,-659.2,-2.1,-10.8,-36.6,-139.4,0,0,3690,0,172,0,
2.0500,-78.0,-74.7,-68.9,-80.1,-218.6,-180.3,-57.3,-59.7,-47.4,-102.1,-1087.9,-713.0,-113.6,669.2,-217.2,165.3,-894.6,70.9,-668.4,-2.4,-19.8,-45.3,-142.3,0,0,3696,0,173,0,
2.0533,-78.0,-74.4,-69.8,-84.3,-219.8,-180.6,-58.2,-64.5,-40.5,-107.8,-1085.2,-712.7,-115.4,671.0,-215.7,176.1,-903.6,66.4,-671.1,-2.4,-19.5,-43.8,-145.9,0,0,3702,0,174,0,
2.0567,-75.9,-75.6,-66.8,-80.1,-216.5,-180.3,-59.4,-60.3,-51.0,-104.8,-1080.5,-726.2,-121.4,663.5,-217.2,189.3,-904.2,65.2,-667.3,-2.1,-20.7,-46.8,-143.2,0,0,3708,0,175,0,
2.0600,-78.3,-80.1,-74.8,-85.2,-221.0,-181.8,-62.1,-65.4,-45.6,-109.9,-1089.1,-724.1,-119.6,662.0,-222.9,158.1,-913.8,59.2,-672.6,-2.4,-16.5,-48.3,-142.6,0,0,3714,0,176,0,
2.0633,-78.6,-77.4,-69.5,-84.9,-220.7,-180.6,-61.5,-63.0,-58.5,-108.1,-1086.1,-713.3,-124.7,661.7,-226.2,173.7,-914.1,65.2,-674.4,-2.1,-30.3,-53.4,-144.1,0,0,3720,0,177,0,
2.0667,-76.8,-77.7,-74.2,-84.9,-224.2,-181.2,-65.0,-62.7,-54.6,-113.2,-1085.8,-713.6,-118.7,663.8,-222.9,188.7,-921.9,54.1,-674.1,-2.1,-23.7,-59.1,-145.3,0,0,3726,0,178,0,
2.0700,-81.9,-78.6,-72.4,-85.5,-223.3,-182.4,-62.4,-61.8,-48.0,-112.3,-1090.3,-710.0,-121.7,665.9,-222.0,165.3,-923.4,60.4,-680.1,-1.8,-28.2,-59.1,-146.5,0,0,3732,0,179,0,
2.0733,-83.1,-78.0,-70.7,-82.2,-218.0,-178.5,-65.6,-60.0,-50.7,-112.3,-1086.7,-715.7,-117.2,667.7,-226.8,184.2,-928.5,62.5,-677.4,-2.1,-31.2,-60.6,-147.4,0,0,3738,0,180,0,
2.0767,-83.1,-74.4,-65.9,-79.5,-215.6,-177.9,-60.3,-58.2,-48.6,-112.3,-1086.4,-711.5,-115.7,663.2,-222.0,177.9,-936.3,63.4,-677.4,-2.4,-30.0,-54.9,-143.8,0,0,3744,0,181,0,
2.0800,-78.3,-73.2,-65.0,-78.3,-219.5,-176.7,-60.0,-57.3,-51.3,-109.0,-1089.4,-709.7,-114.5,666.8,-224.1,183.3,-941.4,63.1,-689.7,-2.4,-25.8,-53.7,-142.6,0,0,3750,0,182,0,
2.0833,-78.3,-74.7,-65.9,-76.8,-217.4,-180.3,-63.5,-59.1,-54.0,-106.9,-1085.5,-709.1,-117.8,665.0,-220.8,168.6,-945.3,63.4,-684.6,-2.1,-31.5,-58.5,-143.2,0,0,3756,0,183,0,
2.0867,-76.8,-72.9,-67.7,-81.9,-220.4,-186.6,-66.2,-57.6,-51.9,-110.8,-1087.9,-705.2,-118.7,667.7,-225.6,171.0,-954.6,58.3,-683.1,-2.7,-27.9,-65.4,-150.7,0,0,3762,0,184,0,
2.0900,-78.0,-74.4,-66.8,-82.8,-221.0,-188.1,-68.0,-60.6,-51.6,-107.5,-1090.6,-713.6,-121.4,664.1,-225.9,198.9,-957.9,60.7,-680.1,-2.1,-40.5,-58.5,-156.1,0,0,3768,0,185,0,
2.0933,-81.9,-72.9,-70.7,-83.4,-222.8,-186.0,-66.2,-58.5,-51.6,-107.8,-1086.7,-713.9,-119.3,661.1,-228.9,177.0,-965.7,65.2,-683.1,-2.1,-34.2,-62.4,-157.3,0,0,3774,0,186,0,
2.0967,-81.9,-75.6,-71.8,-82.2,-224.5,-186.3,-66.5,-58.8,-57.3,-111.1,-1091.8,-713.9,-123.8,656.6,-231.3,159.9,-965.1,58.0,-685.2,-1.8,-39.9,-67.8,-158.5,0,0,3780,0,187,0,
2.1000,-87.0,-78.9,-74.2,-84.3,-223.3,-184.5,-69.5,-60.3,-58.2,-112.0,-1091.2,-719.6,-127.1,655.7,-231.0,168.9,-975.9,57.1,-685.8,-2.7,-38.1,-66.3,-158.5,0,0,3786,0,188,0,
2.1033,-82.8,-82.2,-72.7,-86.1,-227.8,-182.4,-66.5,-58.8,-61.5,-114.4,-1093.9,-724.1,-127.7,655.7,-229.8,186.3,-981.0,58.9,-688.2,-2.1,-41.4,-64.2,-160.6,0,0,3792,0,189,0,
2.1067,-85.8,-80.1,-77.8,-90.3,-224.8,-178.5,-64.1,-62.1,-60.9,-118.6,-1093.9,-722.6,-127.1,655.7,-230.4,170.7,-981.6,53.2,-688.2,-2.1,-42.3,-57.3,-154.9,0,0,3798,0,190,0,
2.1100,-78.6,-75.3,-72.7,-84.9,-222.8,-179.4,-65.3,-58.5,-59.4,-114.4,-1090.0,-717.2,-125.6,656.6,-227.1,166.8,-983.4,57.1,-689.4,-2.1,-42.9,-58.2,-155.2,0,0,3804,0,191,0,
2.1133,-81.0,-75.0,-68.9,-86.7,-227.5,-182.7,-69.2,-58.5,-62.7,-111.1,-1088.2,-712.7,-130.4,655.1,-222.9,177.0,-984.6,61.0,-692.6,-2.1,-38.4,-66.9,-149.5,0,0,3810,0,192,0,
2.1167,-79.5,-76.5,-68.0,-85.2,-224.2,-181.5,-66.5,-54.0,-53.4,-114.1,-1093.0,-712.1,-128.3,654.5,-222.3,183.0,-988.5,59.8,-687.6,-2.4,-33.0,-59.7,-150.1,0,0,3816,0,193,0,
2.1200,-83.7,-82.8,-78.7,-97.8,-238.9,-190.2,-73.1,-61.5,-60.9,-121.9,-1101.1,-724.7,-125.9,656.0,-222.6,193.2,-992.7,49.9,-698.3,-2.4,-46.2,-66.3,-158.8,0,0,3822,0,194,0,
2.1233,-66.6,-60.6,-57.2,-76.8,-219.8,-171.0,-55.8,-42.6,-49.2,-100.3,-1087.0,-713.3,-112.4,661.4,-214.5,171.3,-990.0,72.9,-682.5,-2.1,-31.2,-50.4,-149.8,0,0,3828,0,195,0,
2.1267,-71.7,-71.1,-72.1,-89.4,-230.5,-183.0,-63.5,-53.4,-64.2,-116.2,-1099.9,-723.2,-114.2,665.9,-217.8,170.4,-991.2,58.0,-696.2,-1.8,-46.5,-57.6,-159.7,0,0,3834,0,196,0,
2.1300,-81.6,-79.2,-73.9,-91.5,-232.9,-183.9,-71.6,-54.9,-71.4,-115.3,-1099.6,-722.6,-128.0,648.2,-229.5,168.9,-990.3,57.7,-702.2,-2.4,-46.8,-63.0,-163.6,0,0,3840,0,197,0,
2.1333,-79.5,-76.2,-73.0,-90.0,-228.7,-183.0,-67.7,-55.8,-60.6,-115.0,-1097.5,-716.9,-126.2,649.7,-226.5,178.8,-984.9,56.2,-704.3,-2.1,-45.0,-57.3,-159.7,0,0,3846,0,198,0,
2.1367,-84.3,-80.7,-74.5,-90.9,-229.9,-187.2,-69.8,-58.8,-57.9,-117.1,-1099.9,-718.7,-129.8,650.0,-227.4,186.6,-978.0,52.0,-708.8,-2.1,-45.0,-62.7,-162.1,0,0,3852,0,199,0,
2.1400,-86.1,-82.5,-76.3,-94.8,-234.4,-185.4,-68.0,-59.1,-64.8,-120.1,-1102.9,-720.2,-128.6,653.3,-229.8,172.8,-968.1,53.5,-706.1,-2.7,-50.7,-59.1,-157.9,0,0,3858,0,200,0,
2.1433,-86.1,-84.0,-76.9,-93.3,-232.9,-184.5,-66.2,-61.5,-61.5,-119.2,-1100.5,-722.3,-128.9,652.1,-224.4,170.7,-953.1,53.5,-705.8,-2.4,-43.2,-58.5,-159.7,0,0,3864,0,201,0,
2.1467,-86.1,-85.2,-79.3,-94.2,-232.6,-183.0,-64.7,-57.9,-65.1,-124.3,-1100.5,-723.2,-133.4,649.7,-221.4,174.9,-945.3,49.9,-702.8,-2.1,-40.5,-58.8,-156.7,0,0,3870,0,202,0,
2.1500,-87.9,-82.5,-76.9,-93.3,-232.6,-185.4,-66.8,-58.8,-62.1,-119.8,-1100.8,-730.1,-134.3,648.5,-220.5,174.3,-933.6,52.9,-706.1,-2.4,-40.5,-56.4,-158.5,0,0,3876,0,203,0,
2.1533,-81.6,-81.6,-75.4,-90.0,-229.9,-180.6,-65.6,-55.8,-55.5,-117.4,-1095.7,-742.7,-128.0,648.8,-223.5,176.1,-925.2,49.6,-695.0,-2.7,-36.0,-57.3,-153.1,0,0,3882,0,204,0,
2.1567,-78.0,-77.7,-67.1,-84.0,-223.9,-179.1,-66.2,-55.2,-60.3,-112.9,-1099.3,-725.0,-124.7,649.4,-222.9,179.1,-916.2,57.7,-693.2,-2.4,-38.7,-54.6,-154.3,0,0,3888,0,205,0,
2.1600,-84.6,-80.7,-69.8,-86.1,-223.3,-177.0,-65.6,-54.9,-61.2,-120.4,-1094.5,-722.3,-125.6,646.4,-222.3,179.4,-904.5,52.6,-692.6,-2.4,-33.9,-51.9,-148.9,0,0,3894,0,206,0,
2.1633,-77.4,-79.2,-64.4,-83.1,-217.1,-176.7,-61.5,-53.4,-55.5,-112.0,-1088.2,-720.5,-118.4,653.0,-221.7,183.0,-898.8,63.7,-687.0,-2.1,-29.4,-52.5,-145.0,0,0,3900,0,207,0,
2.1667,-78.3,-79.8,-69.5,-82.8,-215.6,-174.6,-59.4,-51.6,-64.2,-113.5,-1087.3,-725.0,-120.8,653.3,-218.4,177.9,-890.7,61.6,-699.5,-2.4,-28.5,-47.1,-143.5,0,0,3906,0,208,0,
2.1700,-77.7,-78.3,-67.1,-79.2,-217.7,-171.6,-59.4,-53.4,-61.2,-106.3,-1086.7,-716.3,-118.1,653.9,-222.6,186.3,-883.2,64.3,-693.8,-2.7,-22.8,-49.2,-140.3,0,0,3912,0,209,0,
2.1733,-84.6,-88.5,-74.8,-84.9,-225.7,-177.0,-59.7,-60.0,-65.1,-113.5,-1090.6,-718.1,-124.1,649.7,-219.9,177.3,-877.8,51.7,-691.4,-1.8,-31.5,-49.2,-149.8,0,0,3918,0,210,0,
2.1767,-81.3,-83.1,-72.4,-84.3,-225.1,-176.4,-61.5,-58.8,-60.3,-110.8,-1091.5,-712.4,-117.8,652.1,-221.7,175.5,-874.5,56.5,-682.2,-2.1,-26.4,-54.0,-149.2,0,0,3924,0,211,0,
2.1800,-84.0,-81.3,-71.2,-87.3,-231.4,-180.0,-63.0,-59.4,-58.8,-114.1,-1098.7,-713.6,-119.9,650.0,-219.0,176.7,-870.9,58.3,-692.3,-1.8,-34.2,-52.2,-146.5,0,0,3930,0,212,0,
2.1833,-85.5,-84.0,-77.8,-93.0,-233.5,-182.7,-67.7,-61.8,-65.4,-117.1,-1100.2,-717.5,-117.8,656.6,-218.4,174.3,-870.6,51.1,-698.9,-2.7,-33.0,-54.0,-149.2,0,0,3936,0,213,0,
2.1867,-82.8,-80.7,-82.3,-92.1,-232.9,-181.5,-63.8,-60.6,-54.9,-119.8,-1097.5,-709.4,-120.8,652.4,-218.7,188.7,-869.7,51.7,-692.3,-2.4,-22.2,-44.1,-142.0,0,0,3942,0,214,0,
2.1900,-83.4,-83.4,-81.4,-94.8,-233.5,-179.4,-65.0,-59.4,-63.3,-120.7,-1096.6,-715.7,-120.8,651.2,-218.4,207.3,-864.9,47.8,-696.8,-1.8,-26.7,-46.8,-144.4,0,0,3948,0,215,0,
2.1933,-85.5,-85.5,-85.3,-100.5,-239.8,-186.0,-68.6,-65.7,-62.1,-125.5,-1098.7,-715.7,-123.5,650.9,-222.0,160.8,-867.6,42.8,-706.4,-2.1,-27.0,-48.9,-150.1,0,0,3954,0,216,0,
2.1967,-85.2,-85.2,-82.3,-102.9,-238.3,-185.7,-61.8,-67.5,-59.1,-125.8,-1104.7,-717.2,-124.4,644.9,-225.9,182.1,-867.0,45.7,-707.0,-2.4,-30.6,-46.5,-150.4,0,0,3960,0,217,0,
2.2000,-81.6,-88.8,-89.8,-104.7,-239.2,-185.7,-68.6,-66.9,-66.3,-131.2,-1105.3,-727.4,-118.1,649.7,-219.0,171.3,-865.2,41.0,-700.7,-2.7,-33.0,-47.7,-148.9,0,0,3966,0,218,0,
2.2033,-89.1,-87.9,-86.5,-103.8,-235.0,-186.6,-71.3,-68.7,-69.3,-126.7,-1099.9,-723.5,-118.1,649.4,-223.8,216.0,-864.6,49.9,-694.7,-2.1,-29.1,-56.1,-151.9,0,0,3972,0,219,0,
2.2067,-80.1,-82.8,-78.4,-97.2,-227.5,-180.3,-64.7,-59.7,-59.7,-123.7,-1095.4,-717.2,-115.7,657.2,-218.7,183.3,-861.3,53.8,-687.6,-2.4,-20.7,-44.1,-144.7,0,0,3978,0,220,0,
2.2100,-81.9,-82.2,-80.8,-97.5,-230.2,-183.9,-65.3,-61.8,-59.4,-123.1,-1099.0,-714.2,-116.6,652.4,-221.7,144.6,-862.5,51.4,-686.1,-2.4,-21.9,-45.6,-146.8,0,0,3984,0,221,0,
2.2133,-83.4,-87.9,-83.5,-100.2,-233.8,-186.9,-64.7,-64.5,-60.0,-129.1,-1105.9,-722.9,-114.8,652.7,-225.3,152.7,-864.6,46.6,-696.8,-2.1,-31.5,-46.2,-148.9,0,0,3990,0,222,0,
2.2167,-84.0,-84.9,-80.8,-96.3,-231.7,-185.4,-65.3,-63.6,-63.9,-123.7,-1106.5,-715.1,-118.7,653.0,-225.0,164.7,-867.3,51.1,-698.3,-1.8,-25.8,-51.0,-150.1,0,0,3996,0,223,0,
2.2200,-78.6,-78.9,-76.3,-94.5,-230.5,-180.0,-63.2,-57.9,-61.2,-123.1,-1100.5,-716.9,-118.1,655.4,-219.3,168.3,-864.6,50.5,-689.4,-2.4,-27.3,-46.5,-144.1,0,0,4002,0,224,0,
2.2233,-80.4,-83.7,-75.1,-96.0,-230.5,-181.5,-62.7,-57.6,-67.8,-120.1,-1099.0,-716.9,-118.4,655.7,-219.3,164.7,-866.7,50.5,-693.5,-2.1,-29.4,-50.4,-146.5,0,0,4008,0,225,0,
2.2267,-78.9,-81.6,-73.3,-96.6,-232.3,-183.0,-60.9,-57.3,-62.4,-124.6,-1102.0,-724.1,-115.7,651.5,-219.9,171.0,-867.3,46.0,-689.4,-2.1,-23.4,-52.5,-146.8,0,0,4014,0,226,0,
2.2300,-80.1,-77.4,-74.8,-93.0,-228.7,-180.0,-62.1,-59.1,-57.9,-117.7,-1101.1,-721.7,-116.9,651.5,-220.5,176.4,-863.7,54.1,-688.8,-1.5,-33.0,-53.4,-150.4,0,0,4020,0,227,0,
2.2333,-79.8,-76.8,-72.1,-93.6,-224.5,-176.7,-63.2,-58.2,-52.2,-121.0,-1101.4,-722.9,-115.1,653.9,-217.8,174.3,-864.3,55.9,-686.1,-2.1,-24.0,-49.5,-144.1,0,0,4026,0,228,0,
2.2367,-81.6,-78.9,-71.8,-95.4,-229.0,-177.3,-63.8,-60.3,-58.2,-123.1,-1105.3,-717.2,-114.2,656.6,-221.4,172.2,-862.8,51.4,-691.1,-2.1,-29.1,-46.2,-150.7,0,0,4032,0,229,0,
2.2400,-81.9,-77.1,-75.7,-95.4,-228.7,-177.6,-62.7,-58.2,-60.0,-124.9,-1102.0,-721.7,-119.6,650.6,-220.5,177.9,-864.0,49.9,-683.7,-2.7,-29.4,-42.6,-142.0,0,0,4038,0,230,0,
2.2433,-73.5,-70.8,-73.6,-92.4,-226.3,-176.7,-57.6,-55.8,-52.2,-117.1,-1101.7,-726.2,-111.5,663.2,-208.2,174.9,-861.9,53.8,-684.6,-1.8,-22.5,-44.1,-140.8,0,0,4044,0,231,0,
2.2467,-84.6,-82.5,-81.7,-102.3,-238.6,-187.8,-65.9,-60.6,-71.4,-129.7,-1104.7,-721.1,-115.1,656.6,-213.3,179.7,-859.8,40.7,-693.2,-2.1,-39.3,-53.7,-147.7,0,0,4050,0,232,0,
2.2500,-82.5,-80.1,-82.0,-102.0,-243.7,-189.9,-67.4,-62.7,-69.3,-134.5,-1111.3,-709.4,-113.9,655.4,-213.0,177.3,-858.3,38.3,-707.9,-2.1,-40.2,-49.8,-152.8,0,0,4056,0,233,0,
2.2533,-87.0,-85.2,-80.8,-102.3,-237.4,-186.6,-66.2,-66.3,-66.9,-133.3,-1110.1,-712.1,-117.5,657.2,-216.3,180.6,-861.0,41.0,-697.7,-2.4,-34.5,-48.6,-154.6,0,0,4062,0,234,0,
2.2567,-86.4,-87.3,-84.4,-102.0,-237.1,-191.1,-66.2,-68.7,-65.4,-132.7,-1115.7,-713.9,-120.5,655.4,-216.9,176.1,-858.9,38.0,-694.4,-2.1,-34.8,-48.0,-151.0,0,0,4068,0,235,0,
2.2600,-90.3,-90.3,-88.6,-105.6,-241.9,-195.3,-66.8,-69.9,-66.6,-139.9,-1116.0,-719.3,-121.1,656.3,-218.7,176.4,-863.7,32.6,-695.0,-2.1,-39.6,-54.6,-157.9,0,0,4074,0,236,0,
2.2633,-88.5,-91.5,-88.9,-106.8,-243.1,-196.8,-68.3,-70.8,-67.8,-134.8,-1115.4,-715.4,-120.8,652.7,-223.2,183.6,-860.1,35.3,-696.5,-2.1,-43.8,-53.7,-157.0,0,0,4080,0,237,0,
2.2667,-88.8,-90.9,-88.3,-109.2,-245.2,-196.5,-65.9,-68.4,-65.4,-135.4,-1115.7,-719.3,-124.1,659.0,-213.6,183.0,-859.5,35.3,-695.6,-2.4,-36.9,-47.7,-156.7,0,0,4086,0,238,0,
2.2700,-89.4,-90.3,-87.1,-109.2,-241.9,-192.6,-66.2,-66.9,-67.2,-137.8,-1114.5,-717.2,-126.5,654.8,-220.8,168.0,-859.8,35.9,-693.5,-2.4,-43.5,-44.1,-155.8,0,0,4092,0,239,0,
2.2733,-90.6,-90.6,-86.8,-106.2,-242.8,-191.7,-64.1,-66.3,-63.6,-136.9,-1115.7,-723.2,-125.3,653.6,-218.7,177.0,-860.4,35.0,-692.0,-2.4,-35.4,-40.8,-149.8,0,0,4098,0,240,0,
2.2767,-84.9,-85.2,-82.9,-102.3,-237.4,-191.1,-61.5,-62.1,-68.7,-130.6,-1113.0,-720.2,-116.0,656.9,-215.4,182.7,-859.8,41.3,-689.4,-2.1,-35.7,-41.7,-148.3,0,0,4104,0,241,0,
2.2800,-85.5,-89.1,-88.3,-105.9,-241.0,-189.9,-62.7,-66.0,-68.1,-134.2,-1115.1,-725.9,-114.8,653.0,-213.9,162.3,-860.7,38.3,-688.8,-1.8,-34.5,-40.5,-151.0,0,0,4110,0,242,0,
2.2833,-86.1,-84.6,-82.3,-100.2,-235.0,-186.3,-67.1,-64.5,-74.7,-125.8,-1107.4,-722.9,-123.8,642.8,-223.5,174.9,-856.2,47.2,-681.6,-2.4,-35.1,-42.6,-147.1,0,0,4116,0,243,0,
2.2867,-86.1,-84.9,-82.6,-100.5,-238.9,-187.5,-61.5,-64.2,-53.4,-126.1,-1108.3,-708.8,-122.0,643.1,-224.1,178.2,-858.9,49.6,-677.4,-2.1,-26.4,-37.5,-146.5,0,0,4122,0,244,0,
2.2900,-88.8,-88.2,-86.2,-102.6,-244.3,-192.6,-66.2,-68.4,-71.4,-128.5,-1109.8,-715.4,-121.4,646.1,-220.8,166.2,-857.4,45.4,-682.2,-2.4,-33.9,-45.3,-150.4,0,0,4128,0,245,0,
2.2933,-92.4,-89.4,-82.6,-99.6,-239.5,-190.2,-68.0,-67.2,-63.0,-126.1,-1103.8,-713.6,-125.9,643.1,-224.7,189.9,-860.1,46.0,-680.7,-2.4,-27.0,-45.0,-155.2,0,0,4134,0,246,0,
2.2967,-87.9,-82.5,-73.6,-95.7,-231.7,-186.6,-63.0,-63.0,-62.1,-120.7,-1101.7,-714.5,-118.4,649.4,-222.0,184.2,-861.0,52.9,-682.8,-2.4,-28.2,-42.6,-147.4,0,0,4140,0,247,0,
2.3000,-90.0,-83.1,-77.5,-93.9,-228.4,-186.0,-62.1,-63.9,-51.3,-123.4,-1101.1,-710.9,-114.8,647.0,-221.1,156.6,-862.2,46.9,-675.0,-2.1,-20.7,-43.5,-143.2,0,0,4146,0,248,0,
2.3033,-85.8,-79.2,-71.5,-86.4,-221.6,-184.5,-62.7,-58.5,-52.5,-115.6,-1094.5,-705.5,-115.4,649.7,-220.5,168.0,-858.6,56.8,-666.4,-2.4,-24.9,-45.0,-142.9,0,0,4152,0,249,0,
2.3067,-83.1,-75.6,-67.1,-86.4,-221.3,-187.2,-63.5,-60.6,-45.6,-111.4,-1092.4,-702.8,-112.1,657.2,-217.5,166.8,-859.8,61.6,-665.8,-2.1,-20.7,-46.5,-144.4,0,0,4158,0,250,0,
2.3100,-85.2,-77.7,-70.4,-87.9,-226.0,-187.8,-65.9,-63.0,-54.3,-112.0,-1092.1,-715.4,-115.7,655.4,-222.6,172.2,-859.2,61.9,-664.6,-2.1,-25.8,-51.6,-145.6,0,0,4164,0,251,0,
2.3133,-88.5,-76.8,-69.8,-89.4,-226.3,-185.7,-68.0,-60.0,-56.1,-112.6,-1090.0,-707.6,-119.3,643.7,-233.4,187.8,-859.8,60.1,-668.2,-2.4,-22.2,-53.4,-141.4,0,0,4170,0,252,0,
