Time,P3,C3,F3,Fz,F4,C4,P4,Cz,A1,Fp1,Fp2,T3,T5,O1,O2,X3:EMGLE,X2:ECG,F7,F8,X1:EMGRI,A2,T6,T4,Pz,Trigger,Time_Offset,ADC_Status,ADC_Sequence,Event,Comments
0.0000,-200.7,-232.1,-426.0,-273.9,-384.6,-330.9,-125.9,-358.0,-220.7,-549.3,-1230.2,-613.0,-398.0,-193.5,-544.2,26.1,-270.3,-575.2,-377.8,-2.1,-167.2,99.3,-272.7,0,0,6,0,203,0,
0.0033,-198.6,-231.5,-423.0,-272.4,-382.5,-328.5,-121.4,-355.9,-216.2,-545.4,-1229.0,-612.4,-395.6,-190.2,-535.5,7.5,-270.6,-574.0,-376.3,-2.1,-169.0,111.9,-269.7,0,0,12,0,204,0,
0.0067,-198.6,-234.2,-426.0,-279.6,-388.2,-332.7,-124.1,-358.3,-219.5,-553.2,-1236.8,-614.5,-395.6,-183.6,-536.7,-0.6,-269.7,-582.4,-382.0,-2.4,-172.6,110.7,-271.2,0,0,18,0,205,0,
0.0100,-206.7,-239.3,-433.2,-282.3,-392.4,-335.4,-125.6,-364.0,-225.8,-557.1,-1233.2,-619.9,-399.5,-190.2,-540.3,-4.5,-269.4,-582.4,-383.2,-2.1,-167.2,110.1,-269.7,0,0,24,0,206,0,
0.0133,-200.7,-234.5,-430.5,-279.6,-388.2,-332.7,-121.7,-360.4,-221.0,-555.0,-1236.2,-617.2,-391.7,-181.8,-534.0,8.7,-265.8,-578.8,-379.6,-2.4,-167.8,114.6,-270.9,0,0,30,0,207,0,
0.0167,-207.3,-242.0,-435.6,-287.4,-393.9,-335.4,-129.5,-362.2,-226.4,-567.3,-1248.8,-626.8,-392.9,-192.0,-541.2,20.7,-264.6,-590.4,-385.0,-2.1,-170.8,107.7,-276.3,0,0,36,0,208,0,
0.0200,-208.5,-245.0,-437.1,-289.8,-395.1,-339.9,-129.5,-364.0,-224.6,-568.2,-1244.6,-629.5,-396.2,-188.7,-541.8,19.2,-269.4,-591.9,-381.7,-2.1,-181.9,104.1,-273.6,0,0,42,0,209,0,
0.0233,-210.6,-237.5,-435.9,-285.6,-393.0,-335.1,-130.1,-361.3,-228.2,-562.8,-1235.9,-622.9,-395.9,-190.2,-545.1,12.6,-271.8,-584.8,-383.8,-2.1,-174.4,109.5,-264.9,0,0,48,0,210,0,
0.0267,-210.6,-238.1,-435.9,-284.4,-393.3,-336.3,-128.0,-360.4,-220.7,-557.7,-1234.7,-628.3,-395.6,-192.9,-545.4,-5.1,-268.8,-583.6,-379.0,-2.4,-172.9,111.6,-264.9,0,0,54,0,211,0,
0.0300,-211.5,-239.6,-437.1,-286.5,-395.1,-335.1,-126.2,-362.2,-222.5,-562.5,-1237.7,-632.8,-394.1,-189.3,-543.0,-3.3,-270.0,-596.7,-381.4,-2.4,-163.3,115.2,-261.3,0,0,60,0,212,0,
0.0333,-211.5,-242.0,-442.5,-291.3,-398.4,-340.2,-124.4,-367.3,-229.4,-567.3,-1243.1,-635.8,-394.7,-185.7,-545.4,9.0,-269.4,-594.3,-381.4,-2.4,-167.2,117.3,-262.2,0,0,66,0,213,0,
0.0367,-213.6,-242.0,-444.6,-291.9,-398.7,-340.5,-124.7,-369.4,-235.4,-570.0,-1241.3,-640.9,-393.8,-189.6,-543.6,27.0,-274.2,-593.7,-377.2,-2.7,-164.2,112.2,-260.4,0,0,72,0,214,0,
0.0400,-211.2,-240.2,-446.1,-290.1,-398.7,-336.6,-126.2,-368.8,-224.6,-567.6,-1244.6,-637.6,-394.7,-188.1,-546.9,20.4,-267.9,-592.5,-378.7,-2.4,-173.5,108.3,-261.3,0,0,78,0,215,0,
0.0433,-212.4,-240.5,-444.9,-290.4,-397.2,-339.9,-124.4,-367.6,-223.4,-566.7,-1245.2,-643.0,-404.3,-199.8,-546.3,6.3,-270.0,-591.0,-385.3,-2.4,-171.7,110.7,-262.8,0,0,84,0,216,0,
0.0467,-214.5,-241.4,-442.5,-291.3,-396.0,-334.8,-122.9,-367.0,-224.9,-566.7,-1244.3,-645.1,-403.4,-199.5,-546.9,-4.8,-268.5,-594.0,-385.3,-2.4,-169.9,114.6,-262.8,0,0,90,0,217,0,
0.0500,-210.0,-242.0,-442.8,-291.3,-400.8,-339.6,-125.3,-365.5,-230.6,-566.7,-1243.4,-634.6,-406.4,-198.0,-549.9,-3.0,-272.7,-591.3,-387.1,-2.4,-176.5,109.2,-270.0,0,0,96,0,218,0,
0.0533,-214.8,-242.6,-442.8,-290.4,-401.7,-340.5,-124.4,-368.2,-222.2,-570.6,-1243.1,-629.8,-408.8,-192.9,-547.5,9.9,-278.4,-597.3,-391.9,-2.4,-174.7,120.6,-267.0,0,0,102,0,219,0,
0.0567,-210.0,-239.0,-439.8,-287.4,-394.2,-339.6,-126.5,-368.8,-222.2,-562.8,-1232.9,-628.9,-403.4,-191.7,-546.0,16.8,-282.3,-588.0,-386.2,-2.1,-170.5,110.7,-258.3,0,0,108,0,220,0,
0.0600,-209.7,-241.7,-442.2,-291.6,-395.4,-345.0,-131.6,-367.9,-230.6,-565.8,-1238.6,-632.2,-400.4,-189.3,-550.2,21.6,-276.3,-594.6,-386.8,-2.4,-170.8,104.1,-263.4,0,0,114,0,221,0,
0.0633,-211.2,-243.2,-440.7,-288.6,-395.1,-342.9,-129.2,-370.3,-228.8,-560.7,-1234.7,-631.6,-398.6,-190.2,-543.0,12.6,-279.9,-591.6,-380.5,-2.4,-167.2,110.4,-266.4,0,0,120,0,222,0,
0.0667,-205.5,-235.1,-432.9,-283.8,-392.7,-336.0,-124.4,-364.0,-220.4,-555.0,-1229.9,-625.6,-393.8,-183.6,-541.8,-3.0,-282.3,-580.9,-373.7,-2.4,-162.4,116.7,-264.6,0,0,126,0,223,0,
0.0700,-204.3,-235.4,-438.3,-283.8,-390.6,-336.0,-125.0,-360.7,-220.1,-560.4,-1232.9,-624.4,-396.5,-186.6,-542.7,-2.1,-279.6,-588.0,-373.7,-2.1,-169.3,112.8,-261.6,0,0,132,0,224,0,
0.0733,-205.8,-240.8,-439.8,-288.0,-397.2,-342.6,-131.9,-367.6,-229.4,-563.4,-1238.0,-627.7,-399.8,-187.8,-550.5,7.5,-281.1,-587.7,-384.1,-2.1,-168.7,106.8,-266.7,0,0,138,0,225,0,
0.0767,-207.9,-243.2,-445.2,-294.6,-399.9,-344.7,-128.9,-371.8,-233.3,-570.0,-1244.6,-632.5,-392.9,-183.3,-546.0,22.8,-276.3,-595.5,-389.5,-2.1,-175.6,109.8,-265.8,0,0,144,0,226,0,
0.0800,-212.7,-242.9,-441.6,-290.7,-399.3,-346.8,-129.8,-369.4,-234.2,-567.9,-1242.2,-643.9,-402.2,-194.4,-545.7,18.0,-285.0,-593.4,-384.7,-2.4,-171.4,108.9,-266.4,0,0,150,0,227,0,
0.0833,-214.5,-240.5,-440.4,-292.5,-400.2,-350.4,-130.7,-373.3,-225.2,-566.1,-1241.9,-636.7,-399.8,-196.5,-544.2,10.5,-282.9,-594.3,-386.5,-2.4,-178.0,106.5,-266.1,0,0,156,0,228,0,
0.0867,-213.6,-244.7,-442.8,-292.8,-402.3,-349.8,-130.7,-371.8,-233.3,-567.3,-1245.8,-634.3,-404.6,-192.6,-543.6,-3.3,-279.6,-595.8,-390.7,-1.8,-182.8,111.0,-271.2,0,0,162,0,229,0,
0.0900,-205.5,-230.6,-431.7,-283.5,-393.6,-339.0,-122.6,-360.7,-223.7,-559.5,-1239.5,-615.7,-391.7,-181.2,-537.3,-3.9,-274.2,-583.0,-387.4,-2.4,-171.4,120.3,-257.7,0,0,168,0,230,0,
0.0933,-210.6,-238.1,-433.8,-287.7,-399.9,-346.2,-131.6,-364.0,-225.8,-565.2,-1239.8,-623.5,-398.6,-190.5,-546.0,10.8,-279.9,-586.6,-394.9,-2.4,-178.3,112.5,-266.4,0,0,174,0,231,0,
0.0967,-209.7,-236.6,-434.7,-287.1,-399.9,-347.4,-128.9,-363.4,-222.8,-566.1,-1239.8,-619.0,-395.0,-192.6,-543.0,23.7,-278.1,-585.7,-391.0,-2.4,-175.3,115.2,-267.3,0,0,180,0,232,0,
0.1000,-209.4,-237.8,-433.2,-290.4,-397.5,-346.2,-130.1,-364.6,-225.5,-566.1,-1235.9,-624.1,-394.7,-192.9,-545.1,18.3,-282.0,-587.7,-393.4,-2.4,-171.7,114.3,-272.7,0,0,186,0,233,0,
0.1033,-211.2,-239.0,-433.8,-288.6,-400.8,-348.9,-131.3,-365.2,-229.1,-566.1,-1240.7,-622.9,-400.1,-194.1,-546.6,12.3,-281.4,-588.6,-395.2,-1.8,-173.5,111.9,-268.8,0,0,192,0,234,0,
0.1067,-207.3,-233.6,-429.6,-284.7,-395.7,-342.6,-129.8,-364.3,-223.7,-561.0,-1235.9,-617.8,-399.8,-192.9,-549.0,-3.6,-280.2,-583.6,-385.9,-2.1,-166.3,112.2,-272.1,0,0,198,0,235,0,
0.1100,-208.2,-235.1,-433.8,-284.7,-395.4,-345.3,-129.8,-366.4,-224.3,-562.2,-1236.2,-617.2,-403.7,-194.7,-546.9,-1.2,-281.1,-585.1,-380.8,-2.4,-166.6,110.4,-272.7,0,0,204,0,236,0,
0.1133,-204.0,-234.2,-427.2,-283.8,-392.1,-345.0,-129.2,-362.2,-228.2,-560.4,-1242.2,-613.6,-404.0,-190.2,-550.8,9.6,-280.2,-581.5,-390.1,-2.4,-179.2,110.4,-279.9,0,0,210,0,237,0,
0.1167,-206.1,-237.5,-434.1,-286.2,-395.1,-348.9,-130.7,-365.5,-227.6,-564.6,-1252.4,-617.5,-404.9,-189.9,-548.1,22.8,-280.5,-585.1,-398.7,-2.1,-181.3,110.4,-281.7,0,0,216,0,238,0,
0.1200,-205.8,-239.3,-429.6,-281.1,-391.8,-343.2,-130.4,-365.2,-225.5,-558.6,-1239.2,-618.1,-396.2,-195.3,-551.1,20.1,-279.0,-578.2,-392.5,-2.4,-178.6,109.2,-275.4,0,0,222,0,239,0,
0.1233,-203.7,-237.5,-429.3,-285.3,-393.0,-344.4,-127.1,-365.5,-227.9,-558.6,-1241.6,-615.7,-394.7,-191.4,-550.2,10.8,-280.8,-579.7,-392.8,-2.4,-181.6,111.9,-276.6,0,0,228,0,240,0,
0.1267,-206.7,-239.3,-426.3,-282.6,-395.4,-346.5,-128.9,-363.1,-231.8,-561.6,-1242.8,-615.1,-396.2,-194.7,-558.6,-7.2,-270.9,-581.5,-392.5,-1.8,-185.5,113.4,-276.0,0,0,234,0,241,0,
0.1300,-206.7,-239.3,-426.6,-288.0,-396.6,-351.9,-130.4,-365.5,-230.9,-562.2,-1244.9,-620.5,-392.9,-186.6,-546.9,0.0,-277.2,-578.2,-396.6,-2.4,-184.0,102.9,-267.6,0,0,240,0,242,0,
0.1333,-204.0,-237.2,-424.5,-281.4,-393.0,-340.8,-127.7,-361.0,-218.9,-560.1,-1234.7,-616.9,-397.4,-194.1,-547.2,8.4,-278.4,-578.2,-391.3,-2.4,-174.1,99.6,-265.5,0,0,246,0,243,0,
0.1367,-202.8,-237.5,-426.6,-286.5,-396.3,-345.9,-133.1,-363.4,-226.4,-562.8,-1241.9,-619.3,-393.2,-184.5,-549.3,21.9,-281.4,-580.0,-398.7,-2.4,-174.7,96.0,-282.3,0,0,252,0,244,0,
0.1400,-201.9,-236.3,-429.3,-284.1,-397.8,-342.9,-131.3,-364.3,-221.9,-563.4,-1245.2,-617.8,-390.5,-178.2,-544.8,24.3,-278.7,-577.9,-394.9,-1.8,-177.4,105.6,-276.3,0,0,258,0,245,0,
0.1433,-201.0,-231.5,-425.4,-281.4,-391.5,-335.4,-130.7,-361.0,-224.0,-557.1,-1238.6,-617.5,-398.9,-189.6,-545.1,2.4,-282.3,-575.8,-387.1,-2.1,-169.3,111.0,-270.9,0,0,264,0,246,0,
0.1467,-201.6,-230.3,-430.5,-284.7,-393.0,-338.7,-131.3,-363.1,-217.7,-558.6,-1235.9,-615.1,-392.9,-188.1,-547.5,-2.4,-283.8,-577.6,-380.2,-2.1,-171.1,113.7,-268.5,0,0,270,0,247,0,
0.1500,-198.9,-228.5,-426.0,-282.0,-391.2,-337.5,-129.5,-362.2,-215.9,-556.2,-1234.7,-609.4,-393.5,-180.9,-542.1,3.9,-280.8,-574.3,-380.2,-2.4,-163.0,114.6,-269.4,0,0,276,0,248,0,
0.1533,-201.9,-230.3,-429.6,-281.1,-389.7,-335.1,-128.0,-357.4,-212.0,-559.2,-1232.9,-615.4,-394.7,-192.9,-540.6,11.7,-278.1,-577.3,-377.2,-2.4,-164.2,114.6,-266.1,0,0,282,0,249,0,
0.1567,-209.7,-233.9,-428.1,-281.4,-391.2,-338.7,-131.0,-360.1,-226.1,-560.7,-1233.5,-620.8,-401.3,-196.8,-542.1,28.8,-276.0,-576.1,-384.4,-1.8,-160.0,113.4,-263.7,0,0,288,0,250,0,
0.1600,-209.1,-232.1,-432.9,-283.2,-392.4,-341.4,-132.8,-360.1,-214.7,-561.9,-1237.7,-619.0,-397.1,-193.2,-540.0,29.7,-278.4,-575.8,-383.5,-2.1,-176.2,113.4,-273.6,0,0,294,0,251,0,
0.1633,-213.3,-239.0,-438.3,-288.3,-396.6,-341.7,-134.3,-363.4,-223.4,-567.3,-1250.6,-624.1,-398.6,-191.7,-541.8,16.5,-273.3,-586.0,-390.7,-2.1,-172.3,114.6,-276.6,0,0,300,0,252,0,
0.1667,-213.0,-237.5,-432.6,-283.8,-393.3,-343.5,-134.0,-360.4,-224.9,-561.6,-1244.6,-618.1,-394.7,-195.3,-549.9,0.0,-275.7,-581.2,-385.9,-2.1,-175.9,116.7,-271.2,0,0,306,0,253,0,
0.1700,-207.9,-231.2,-424.2,-276.3,-384.6,-334.8,-125.9,-355.3,-214.7,-556.2,-1234.7,-615.1,-393.2,-189.0,-539.1,2.7,-270.9,-571.9,-379.9,-2.7,-160.0,121.8,-259.2,0,0,312,0,254,0,
0.1733,-206.7,-230.0,-423.9,-275.7,-381.9,-336.9,-129.5,-355.0,-214.7,-552.6,-1230.2,-617.5,-396.5,-192.3,-541.8,13.5,-275.1,-568.3,-371.6,-2.4,-174.1,117.0,-261.3,0,0,318,0,255,0,
0.1767,-211.5,-238.7,-433.8,-283.5,-388.8,-339.9,-137.0,-364.0,-226.4,-564.9,-1240.7,-626.8,-406.4,-200.4,-548.1,25.2,-273.0,-579.1,-379.3,-2.4,-165.4,107.1,-261.0,0,0,324,0,0,0,
0.1800,-208.5,-232.4,-430.2,-279.9,-387.9,-341.1,-131.3,-360.4,-225.8,-560.1,-1235.3,-618.1,-405.8,-194.7,-545.1,24.9,-274.2,-575.5,-377.5,-2.1,-169.3,102.9,-259.5,0,0,330,0,1,0,
0.1833,-207.3,-234.8,-432.3,-283.5,-390.3,-342.0,-132.2,-363.1,-222.8,-560.1,-1235.0,-624.4,-397.4,-196.5,-546.3,16.8,-276.0,-577.6,-375.7,-2.4,-169.0,108.0,-261.6,0,0,336,0,2,0,
0.1867,-204.0,-232.1,-429.3,-284.7,-390.6,-342.9,-131.6,-360.1,-222.5,-558.3,-1234.1,-621.7,-394.7,-194.7,-544.2,8.1,-277.2,-580.0,-379.6,-2.1,-175.0,109.5,-264.9,0,0,342,0,3,0,
0.1900,-204.6,-230.6,-426.6,-281.1,-388.5,-336.3,-129.5,-359.2,-221.0,-558.6,-1231.4,-621.7,-397.1,-201.3,-547.8,-3.6,-280.5,-576.4,-376.6,-2.1,-163.3,110.1,-262.8,0,0,348,0,4,0,
0.1933,-207.6,-232.1,-424.8,-280.2,-384.0,-333.3,-129.5,-359.2,-223.1,-555.0,-1231.4,-622.3,-405.5,-195.9,-541.5,15.9,-276.3,-572.5,-373.4,-2.4,-160.6,110.7,-256.5,0,0,354,0,5,0,
0.1967,-206.4,-228.2,-423.6,-279.0,-382.8,-333.0,-127.1,-357.1,-221.0,-555.0,-1229.9,-622.3,-399.8,-194.4,-541.5,22.8,-277.8,-567.7,-368.9,-2.4,-161.5,114.0,-252.3,0,0,360,0,6,0,
0.2000,-201.6,-222.2,-419.7,-276.6,-379.8,-329.1,-121.4,-353.2,-212.0,-557.4,-1230.5,-620.2,-398.9,-192.3,-535.5,27.3,-277.2,-572.2,-369.8,-1.8,-157.6,113.7,-249.0,0,0,366,0,7,0,
0.2033,-203.1,-226.4,-424.2,-280.8,-386.1,-328.5,-124.4,-357.4,-223.4,-556.8,-1235.0,-630.1,-395.6,-189.9,-536.7,14.4,-276.3,-574.9,-373.9,-1.8,-163.6,112.5,-250.8,0,0,372,0,8,0,
0.2067,-205.5,-230.3,-426.6,-283.8,-388.8,-336.9,-128.3,-358.9,-220.4,-554.1,-1232.6,-620.5,-392.3,-189.9,-541.2,-2.4,-280.5,-573.1,-374.5,-2.4,-166.3,110.1,-259.2,0,0,378,0,9,0,
0.2100,-207.0,-231.5,-425.7,-286.2,-388.5,-335.7,-132.5,-360.7,-218.6,-553.5,-1232.9,-615.1,-392.0,-188.7,-542.1,1.8,-279.6,-568.0,-379.3,-2.1,-178.3,109.8,-258.3,0,0,384,0,10,0,
0.2133,-210.9,-234.8,-429.9,-287.7,-392.4,-336.0,-133.1,-358.6,-222.2,-560.7,-1239.2,-620.8,-389.9,-178.2,-539.1,12.9,-278.4,-576.4,-388.0,-2.7,-180.7,102.3,-262.2,0,0,390,0,11,0,
0.2167,-210.0,-232.7,-429.6,-285.0,-390.0,-331.5,-130.4,-358.6,-221.6,-559.8,-1235.6,-619.0,-393.2,-186.9,-540.9,30.0,-276.3,-575.5,-389.2,-2.1,-169.0,111.9,-257.4,0,0,396,0,12,0,
0.2200,-209.4,-231.8,-427.8,-285.6,-386.4,-330.9,-129.2,-357.7,-219.5,-559.2,-1239.2,-619.0,-386.3,-184.5,-542.7,30.6,-279.3,-575.8,-392.5,-2.4,-169.9,109.5,-259.2,0,0,402,0,13,0,
0.2233,-214.8,-234.5,-430.8,-287.7,-389.7,-334.5,-129.8,-361.9,-222.5,-560.7,-1244.0,-621.4,-384.8,-182.7,-543.0,19.5,-283.5,-575.2,-394.0,-2.1,-172.6,118.2,-259.5,0,0,408,0,14,0,
0.2267,-215.1,-233.9,-432.3,-286.2,-389.7,-335.7,-131.6,-360.4,-222.2,-556.2,-1236.8,-617.2,-385.1,-183.6,-541.5,6.6,-277.8,-573.7,-378.7,-2.7,-171.7,120.6,-261.0,0,0,414,0,15,0,
0.2300,-211.2,-231.2,-431.4,-283.8,-388.8,-335.7,-133.4,-361.0,-214.7,-555.6,-1232.0,-620.8,-387.5,-177.6,-540.3,11.4,-285.6,-576.4,-373.4,-2.4,-169.6,112.8,-259.8,0,0,420,0,16,0,
0.2333,-208.8,-227.9,-429.0,-282.6,-384.3,-334.2,-131.9,-359.8,-216.2,-553.5,-1228.2,-616.6,-388.1,-178.5,-541.5,12.6,-282.6,-573.1,-373.7,-2.4,-173.2,110.4,-255.3,0,0,426,0,17,0,
0.2367,-207.6,-233.6,-430.5,-284.4,-385.2,-331.2,-131.3,-360.4,-224.9,-555.3,-1232.0,-623.2,-390.8,-180.9,-545.4,32.7,-287.4,-576.7,-376.3,-2.4,-159.7,114.9,-254.4,0,0,432,0,18,0,
0.2400,-203.4,-233.0,-430.5,-283.2,-386.7,-330.9,-130.7,-358.3,-224.6,-562.5,-1229.6,-622.9,-381.2,-167.7,-541.5,29.4,-283.5,-578.8,-372.8,-2.4,-163.0,114.6,-255.9,0,0,438,0,19,0,
0.2433,-204.3,-230.6,-424.8,-274.2,-380.7,-327.9,-131.3,-356.2,-218.0,-553.2,-1224.6,-633.1,-393.5,-183.3,-548.7,18.0,-280.5,-577.9,-365.9,-2.4,-155.8,110.7,-248.4,0,0,444,0,20,0,
0.2467,-204.0,-230.0,-424.5,-278.7,-382.5,-325.8,-129.2,-359.2,-219.8,-550.2,-1230.2,-627.7,-395.0,-177.3,-544.8,3.6,-278.7,-569.8,-370.4,-2.1,-160.3,111.6,-249.3,0,0,450,0,21,0,
0.2500,-200.4,-227.6,-417.9,-272.7,-378.9,-326.7,-128.0,-356.8,-206.3,-544.0,-1220.4,-617.5,-395.9,-182.1,-549.9,3.3,-285.6,-565.6,-366.2,-2.1,-162.1,117.3,-249.9,0,0,456,0,22,0,
0.2533,-204.9,-228.8,-419.1,-273.3,-379.5,-328.5,-128.0,-357.4,-207.8,-542.5,-1221.6,-622.6,-395.6,-177.3,-547.8,14.4,-288.3,-561.7,-370.7,-2.1,-166.3,110.4,-246.6,0,0,462,0,23,0,
0.2567,-199.5,-223.1,-416.1,-270.3,-372.6,-321.3,-125.6,-353.8,-209.0,-544.3,-1218.3,-618.7,-384.5,-177.0,-542.4,31.5,-290.4,-561.7,-365.0,-2.1,-160.0,113.1,-235.5,0,0,468,0,24,0,
0.2600,-193.5,-218.0,-412.2,-268.2,-370.9,-322.2,-121.1,-349.3,-200.9,-541.9,-1217.7,-606.7,-373.7,-167.4,-538.2,32.4,-290.7,-555.2,-364.4,-2.1,-155.2,112.2,-232.6,0,0,474,0,25,0,
0.2633,-195.0,-222.5,-418.2,-267.6,-372.3,-324.9,-125.3,-354.4,-206.9,-540.4,-1214.7,-612.1,-376.4,-173.7,-542.4,22.2,-292.5,-562.0,-366.5,-1.8,-157.6,111.9,-235.8,0,0,480,0,26,0,
0.2667,-195.0,-219.2,-414.6,-268.8,-375.6,-326.7,-127.7,-355.3,-208.1,-543.1,-1220.1,-608.8,-377.3,-173.4,-539.4,3.3,-288.6,-563.5,-372.5,-2.1,-159.1,113.1,-237.3,0,0,486,0,27,0,
0.2700,-195.9,-222.2,-419.1,-270.0,-376.5,-330.3,-130.1,-359.8,-209.9,-542.8,-1218.6,-610.6,-379.1,-176.4,-540.9,7.5,-288.9,-559.0,-372.8,-2.4,-159.7,118.8,-244.2,0,0,492,0,28,0,
0.2733,-196.8,-218.9,-416.1,-267.3,-367.3,-324.0,-127.7,-356.2,-203.6,-538.3,-1215.9,-606.4,-379.4,-179.1,-539.7,13.2,-289.5,-554.3,-368.6,-2.4,-157.9,124.5,-239.1,0,0,498,0,29,0,
0.2767,-198.3,-224.0,-421.5,-269.4,-373.8,-324.9,-126.2,-355.0,-206.0,-542.2,-1212.3,-610.6,-380.0,-180.9,-540.3,29.4,-285.9,-560.5,-364.4,-2.1,-152.8,124.2,-243.6,0,0,504,0,30,0,
0.2800,-197.1,-220.7,-419.1,-269.7,-371.8,-328.2,-123.8,-357.7,-207.2,-538.0,-1212.0,-607.9,-377.3,-173.1,-534.9,30.3,-290.7,-559.0,-360.2,-2.7,-154.6,114.9,-240.3,0,0,510,0,31,0,
0.2833,-199.2,-222.8,-417.3,-269.1,-369.7,-326.7,-122.6,-354.4,-201.8,-533.5,-1208.1,-607.6,-381.2,-177.3,-535.5,22.5,-290.1,-558.5,-362.3,-2.7,-145.3,117.6,-240.6,0,0,516,0,32,0,
0.2867,-196.8,-221.0,-419.4,-270.9,-372.3,-322.8,-122.6,-356.5,-203.9,-537.4,-1213.5,-607.0,-380.3,-170.1,-540.6,2.4,-288.3,-564.1,-365.6,-2.1,-152.5,108.9,-240.6,0,0,522,0,33,0,
0.2900,-193.5,-222.2,-417.6,-271.2,-369.4,-325.2,-122.6,-355.3,-202.1,-541.0,-1219.5,-604.9,-379.1,-171.9,-540.0,3.9,-285.6,-567.1,-362.3,-2.1,-148.9,109.5,-240.0,0,0,528,0,34,0,
0.2933,-200.1,-221.3,-418.2,-271.8,-369.4,-324.3,-122.3,-358.6,-198.5,-540.4,-1211.7,-609.1,-381.5,-171.6,-533.7,21.0,-286.8,-561.7,-360.8,-2.4,-148.6,111.9,-239.4,0,0,534,0,35,0,
0.2967,-192.3,-214.4,-412.8,-264.6,-367.0,-320.7,-117.2,-349.9,-200.3,-532.9,-1203.3,-601.0,-375.8,-163.3,-526.8,34.5,-288.9,-553.1,-357.8,-2.4,-141.1,116.7,-238.2,0,0,540,0,36,0,
0.3000,-192.3,-215.3,-419.1,-270.3,-370.3,-327.9,-118.1,-350.2,-201.5,-538.9,-1211.1,-602.8,-376.1,-166.3,-531.3,33.0,-290.4,-559.0,-359.9,-2.1,-145.6,110.1,-242.4,0,0,546,0,37,0,
0.3033,-192.0,-216.2,-416.7,-265.8,-366.4,-323.7,-117.2,-350.8,-197.3,-536.5,-1211.7,-604.0,-383.6,-168.6,-530.1,22.8,-285.3,-557.6,-359.9,-2.4,-151.9,113.1,-237.3,0,0,552,0,38,0,
0.3067,-195.6,-216.2,-413.7,-264.9,-365.2,-319.8,-115.4,-350.5,-199.4,-534.1,-1211.1,-609.7,-384.8,-171.9,-531.9,9.3,-288.3,-552.8,-356.6,-2.4,-142.9,113.7,-240.3,0,0,558,0,39,0,
0.3100,-189.3,-211.4,-409.8,-262.8,-361.9,-311.4,-110.3,-345.7,-194.3,-534.4,-1207.8,-606.1,-387.2,-167.4,-527.4,7.2,-287.4,-548.9,-357.2,-2.4,-139.3,124.5,-232.9,0,0,564,0,40,0,
0.3133,-204.0,-223.4,-424.5,-275.4,-374.4,-325.8,-122.0,-357.4,-210.8,-548.4,-1226.1,-618.1,-403.1,-179.7,-541.8,20.7,-290.7,-566.2,-372.8,-2.4,-161.2,115.2,-244.5,0,0,570,0,41,0,
0.3167,-201.6,-229.4,-425.1,-279.9,-375.0,-327.0,-120.5,-358.6,-217.1,-548.4,-1227.3,-624.7,-401.9,-179.4,-547.2,30.6,-288.6,-571.0,-368.9,-2.4,-156.7,109.5,-244.5,0,0,576,0,42,0,
0.3200,-200.7,-231.2,-426.9,-279.9,-379.2,-336.0,-125.3,-361.3,-221.9,-548.1,-1229.3,-624.7,-397.4,-180.9,-548.7,32.7,-285.9,-565.0,-376.3,-2.1,-166.6,96.3,-252.3,0,0,582,0,43,0,
0.3233,-196.5,-224.0,-427.8,-277.8,-378.9,-331.5,-126.5,-359.8,-218.6,-551.7,-1226.4,-621.4,-398.6,-185.1,-544.8,19.8,-285.6,-567.4,-375.4,-2.1,-158.8,97.8,-253.8,0,0,588,0,44,0,
0.3267,-202.2,-227.6,-429.0,-280.5,-380.4,-334.8,-129.8,-363.1,-223.7,-550.5,-1227.3,-622.6,-396.2,-183.6,-546.0,4.8,-285.0,-568.6,-373.4,-2.7,-164.5,103.5,-263.4,0,0,594,0,45,0,
0.3300,-202.2,-221.6,-425.4,-278.7,-375.3,-333.3,-126.8,-359.5,-218.3,-546.9,-1222.5,-611.5,-395.3,-182.4,-547.5,4.5,-282.3,-566.5,-369.8,-2.1,-157.0,111.3,-260.7,0,0,600,0,46,0,
0.3333,-199.2,-220.1,-422.4,-273.3,-371.5,-330.9,-120.8,-354.7,-214.1,-548.7,-1224.9,-613.9,-395.0,-182.1,-543.9,14.7,-283.2,-565.6,-371.6,-2.1,-153.7,105.0,-258.3,0,0,606,0,47,0,
0.3367,-201.0,-221.3,-423.0,-271.8,-373.5,-333.3,-123.5,-357.1,-213.5,-547.8,-1222.2,-610.9,-401.6,-188.4,-543.3,34.5,-287.4,-567.4,-376.3,-2.1,-178.3,98.7,-263.4,0,0,612,0,48,0,
0.3400,-198.9,-218.0,-420.6,-267.3,-367.0,-329.7,-118.1,-353.2,-211.7,-540.4,-1218.3,-610.6,-400.4,-184.2,-543.3,28.2,-287.4,-564.4,-367.1,-2.4,-161.2,97.5,-260.4,0,0,618,0,49,0,
0.3433,-198.9,-222.2,-419.4,-270.0,-372.9,-328.8,-123.2,-359.5,-215.9,-544.6,-1226.1,-612.1,-398.3,-180.0,-543.6,24.6,-285.9,-568.6,-371.3,-2.4,-167.8,98.7,-258.3,0,0,624,0,50,0,
0.3467,-199.2,-223.1,-421.5,-270.0,-370.6,-327.9,-123.2,-356.5,-216.8,-547.5,-1229.9,-610.9,-395.3,-189.9,-547.2,2.4,-282.0,-573.1,-373.4,-2.1,-169.0,96.6,-258.9,0,0,630,0,51,0,
0.3500,-200.4,-222.2,-416.4,-264.6,-367.6,-324.6,-123.2,-358.3,-215.3,-540.4,-1228.2,-613.6,-396.2,-188.1,-546.9,6.6,-280.5,-571.0,-368.9,-2.1,-164.8,94.5,-256.2,0,0,636,0,52,0,
0.3533,-198.0,-221.6,-418.2,-264.0,-366.4,-324.3,-120.8,-358.6,-217.7,-545.4,-1227.3,-615.1,-395.3,-189.0,-546.3,15.9,-282.0,-568.9,-368.9,-2.1,-156.1,98.7,-249.3,0,0,642,0,53,0,
0.3567,-201.0,-226.4,-426.3,-274.2,-374.4,-328.8,-125.3,-364.6,-224.0,-553.5,-1227.0,-618.7,-392.9,-183.6,-545.1,31.8,-283.2,-570.7,-372.8,-2.4,-172.0,92.1,-254.7,0,0,648,0,54,0,
0.3600,-201.0,-222.8,-421.2,-272.4,-371.2,-326.7,-123.5,-361.3,-217.1,-546.6,-1216.2,-615.1,-394.1,-191.1,-547.8,27.0,-285.3,-569.5,-369.5,-2.4,-167.2,96.6,-252.0,0,0,654,0,55,0,
0.3633,-201.0,-225.2,-428.4,-274.2,-370.6,-327.6,-122.6,-363.4,-219.8,-549.9,-1217.4,-625.0,-394.7,-186.0,-549.0,20.7,-278.7,-571.9,-373.1,-1.8,-160.0,95.1,-248.7,0,0,660,0,56,0,
0.3667,-202.5,-224.9,-425.4,-274.5,-370.3,-328.5,-123.2,-364.3,-215.9,-546.6,-1220.4,-627.1,-404.9,-188.4,-552.0,3.6,-272.4,-569.8,-376.0,-2.1,-156.1,99.3,-246.9,0,0,666,0,57,0,
0.3700,-204.6,-230.0,-433.2,-279.3,-376.5,-334.2,-124.1,-370.0,-224.0,-554.7,-1230.2,-626.2,-402.2,-187.5,-548.1,6.9,-266.7,-573.7,-382.6,-2.4,-161.5,94.2,-250.5,0,0,672,0,58,0,
0.3733,-207.9,-230.9,-432.0,-279.3,-378.0,-331.5,-129.2,-369.4,-219.8,-556.5,-1229.0,-621.1,-404.0,-189.3,-549.3,15.6,-267.0,-575.8,-379.6,-2.1,-169.6,84.9,-254.1,0,0,678,0,59,0,
0.3767,-206.7,-230.9,-433.2,-280.8,-381.6,-338.7,-134.6,-371.5,-226.7,-561.0,-1234.1,-623.8,-404.9,-188.7,-554.4,27.6,-267.9,-575.5,-383.2,-2.4,-177.7,79.5,-260.7,0,0,684,0,60,0,
0.3800,-207.9,-229.7,-429.6,-278.7,-382.5,-334.2,-131.6,-370.3,-231.2,-560.1,-1235.9,-618.4,-404.0,-189.0,-552.9,30.3,-270.3,-577.0,-384.7,-2.1,-177.4,80.1,-262.2,0,0,690,0,61,0,
0.3833,-204.9,-229.4,-428.1,-279.3,-378.6,-335.4,-128.9,-370.3,-224.6,-557.4,-1235.9,-616.6,-399.5,-185.1,-551.1,21.3,-267.6,-577.6,-382.0,-2.4,-175.3,81.0,-263.1,0,0,696,0,62,0,
0.3867,-197.7,-219.8,-417.6,-265.2,-364.6,-322.8,-119.0,-359.5,-211.7,-540.4,-1219.2,-602.5,-402.2,-192.6,-546.0,7.8,-273.9,-564.1,-364.4,-2.1,-163.0,95.1,-260.1,0,0,702,0,63,0,
0.3900,-210.9,-229.7,-428.4,-277.2,-376.8,-330.6,-127.4,-369.4,-222.8,-554.7,-1237.1,-622.0,-409.1,-198.3,-549.6,5.1,-275.4,-576.7,-378.1,-2.1,-169.6,92.1,-261.6,0,0,708,0,64,0,
0.3933,-207.6,-233.0,-425.7,-274.5,-368.8,-325.5,-125.9,-365.5,-229.7,-556.8,-1246.7,-620.8,-405.2,-195.0,-551.7,15.0,-277.5,-575.2,-387.7,-2.1,-170.2,86.4,-260.4,0,0,714,0,65,0,
0.3967,-205.2,-228.5,-420.9,-270.9,-369.7,-327.0,-129.5,-366.7,-224.3,-547.8,-1227.3,-614.2,-410.2,-201.3,-554.7,31.8,-282.3,-567.4,-373.9,-2.1,-166.6,91.5,-263.7,0,0,720,0,66,0,
0.4000,-206.1,-230.6,-425.7,-270.3,-373.2,-324.3,-133.7,-367.9,-229.4,-554.7,-1231.1,-613.3,-406.7,-197.4,-549.9,30.0,-281.7,-573.7,-375.4,-2.1,-167.5,80.4,-264.6,0,0,726,0,67,0,
0.4033,-203.7,-229.1,-422.7,-271.8,-374.1,-332.4,-131.6,-366.4,-226.4,-549.9,-1228.4,-608.5,-401.3,-190.5,-547.8,21.3,-293.4,-571.3,-377.8,-2.4,-174.4,82.2,-260.7,0,0,732,0,68,0,
0.4067,-205.2,-230.9,-424.5,-273.0,-373.8,-332.1,-132.8,-366.1,-227.9,-552.9,-1229.0,-604.6,-401.9,-194.1,-547.2,2.7,-292.8,-575.2,-379.0,-2.4,-180.1,82.2,-258.6,0,0,738,0,69,0,
0.4100,-204.3,-229.4,-426.9,-276.0,-377.7,-330.6,-130.7,-367.3,-224.0,-552.0,-1227.9,-604.0,-403.1,-193.8,-541.8,3.9,-296.4,-573.7,-375.1,-2.4,-176.8,84.6,-263.4,0,0,744,0,70,0,
0.4133,-204.0,-230.3,-429.6,-276.6,-379.8,-327.9,-130.4,-367.9,-226.4,-557.1,-1235.6,-609.4,-403.7,-193.5,-542.1,16.5,-299.1,-577.6,-375.4,-2.1,-178.3,84.6,-270.6,0,0,750,0,71,0,
0.4167,-210.3,-232.4,-431.4,-278.4,-382.5,-330.6,-131.6,-372.4,-233.9,-559.5,-1238.6,-613.9,-412.0,-202.5,-549.9,26.7,-302.7,-578.5,-379.3,-2.1,-173.5,81.6,-269.4,0,0,756,0,72,0,
0.4200,-208.2,-232.1,-427.8,-275.1,-378.6,-329.4,-134.0,-370.9,-228.2,-555.6,-1235.0,-611.8,-408.8,-201.3,-546.9,32.1,-309.3,-574.9,-375.4,-2.1,-171.7,76.8,-265.5,0,0,762,0,73,0,
0.4233,-197.7,-224.6,-417.0,-270.0,-370.6,-322.8,-126.8,-362.8,-220.4,-545.7,-1227.9,-601.9,-407.3,-193.8,-543.3,19.2,-303.9,-570.7,-368.0,-2.1,-166.0,87.9,-254.4,0,0,768,0,74,0,
0.4267,-207.9,-230.6,-426.3,-278.1,-378.9,-330.3,-136.7,-365.8,-228.8,-556.2,-1238.3,-613.6,-416.2,-199.8,-554.4,5.7,-297.0,-579.4,-376.3,-2.4,-172.3,78.0,-258.0,0,0,774,0,75,0,
0.4300,-197.4,-222.8,-418.5,-271.2,-371.2,-324.6,-125.0,-356.5,-221.3,-546.9,-1226.1,-607.6,-411.4,-197.7,-547.8,1.2,-293.4,-569.8,-371.0,-2.4,-175.3,90.3,-249.9,0,0,780,0,76,0,
0.4333,-202.5,-226.1,-423.6,-273.6,-368.8,-327.6,-128.6,-363.7,-225.2,-546.9,-1228.2,-610.0,-415.0,-191.4,-543.0,17.1,-289.8,-570.4,-370.4,-2.1,-171.4,88.8,-257.1,0,0,786,0,77,0,
0.4367,-199.2,-221.9,-420.3,-269.4,-362.5,-320.1,-125.6,-357.7,-215.3,-545.4,-1221.3,-601.3,-417.7,-205.2,-547.8,32.1,-282.6,-565.9,-361.4,-2.4,-160.3,98.1,-256.2,0,0,792,0,78,0,
0.4400,-200.1,-227.9,-423.0,-270.3,-368.5,-323.1,-127.4,-360.7,-224.6,-550.8,-1223.1,-608.5,-408.8,-192.9,-541.5,34.5,-282.9,-568.9,-364.4,-2.1,-170.5,93.0,-255.9,0,0,798,0,79,0,
0.4433,-200.7,-221.6,-417.0,-264.9,-362.5,-316.8,-122.6,-354.7,-218.0,-540.4,-1217.1,-604.9,-411.4,-205.8,-546.3,15.6,-281.4,-562.3,-362.9,-2.7,-167.2,98.4,-254.7,0,0,804,0,80,0,
0.4467,-205.5,-225.2,-418.8,-269.1,-367.6,-322.8,-125.9,-359.5,-217.4,-541.3,-1221.9,-609.1,-407.6,-200.1,-544.8,9.3,-285.3,-565.0,-370.4,-2.1,-154.6,94.2,-257.4,0,0,810,0,81,0,
0.4500,-201.0,-222.8,-422.1,-268.5,-371.2,-324.3,-128.0,-356.8,-218.6,-544.9,-1220.1,-609.1,-406.7,-200.7,-545.7,-0.9,-286.2,-572.5,-362.3,-2.1,-157.9,89.7,-258.6,0,0,816,0,82,0,
0.4533,-202.5,-226.4,-424.2,-270.6,-369.1,-320.7,-127.1,-358.3,-220.4,-550.2,-1228.2,-613.9,-407.6,-197.1,-547.5,18.9,-286.8,-577.0,-374.8,-2.4,-157.6,88.5,-261.0,0,0,822,0,83,0,
0.4567,-202.2,-226.7,-423.6,-271.8,-372.3,-319.8,-127.7,-358.6,-221.9,-552.9,-1230.2,-615.7,-408.8,-193.5,-547.2,30.3,-283.8,-577.6,-376.9,-2.4,-165.1,83.7,-261.3,0,0,828,0,84,0,
0.4600,-202.2,-227.9,-422.1,-268.5,-374.1,-322.8,-129.2,-359.5,-226.1,-549.3,-1231.4,-609.4,-406.4,-196.5,-548.7,35.4,-288.3,-573.7,-379.6,-2.4,-171.7,82.2,-270.9,0,0,834,0,85,0,
0.4633,-202.2,-229.1,-421.8,-269.7,-378.0,-328.8,-132.8,-363.4,-223.4,-549.9,-1235.9,-602.8,-406.7,-194.1,-549.6,19.5,-283.2,-571.6,-373.1,-2.1,-166.0,86.4,-273.9,0,0,840,0,86,0,
0.4667,-204.6,-233.3,-425.4,-273.3,-378.0,-330.9,-131.9,-370.3,-230.3,-546.0,-1236.5,-607.9,-408.5,-192.9,-548.4,5.1,-282.6,-568.3,-371.3,-1.8,-166.9,90.3,-272.4,0,0,846,0,87,0,
0.4700,-206.1,-234.5,-434.4,-278.4,-387.0,-337.2,-137.9,-372.1,-228.2,-562.8,-1244.3,-613.0,-403.4,-189.6,-550.8,4.8,-280.8,-575.2,-383.8,-2.1,-175.9,81.0,-280.2,0,0,852,0,88,0,
0.4733,-209.1,-234.5,-430.8,-280.2,-383.7,-337.8,-134.6,-368.2,-232.1,-562.5,-1235.0,-621.7,-415.3,-198.9,-552.0,19.8,-284.7,-574.0,-382.3,-2.4,-179.5,86.7,-277.2,0,0,858,0,89,0,
0.4767,-210.6,-229.7,-428.4,-273.6,-381.9,-337.8,-135.2,-367.9,-221.6,-549.6,-1230.2,-608.8,-418.0,-203.4,-556.2,32.4,-292.2,-568.3,-381.4,-2.7,-175.0,88.8,-274.2,0,0,864,0,90,0,
0.4800,-211.5,-229.4,-428.1,-272.7,-378.9,-336.9,-134.3,-361.6,-227.9,-549.0,-1228.7,-613.3,-412.9,-200.7,-553.5,30.3,-289.5,-572.2,-378.1,-2.7,-167.2,88.5,-276.0,0,0,870,0,91,0,
0.4833,-208.2,-227.6,-425.4,-273.9,-380.7,-335.1,-132.2,-360.4,-229.7,-549.3,-1237.4,-607.0,-402.5,-192.6,-546.6,21.0,-286.5,-568.6,-383.8,-2.1,-171.1,87.0,-282.6,0,0,876,0,92,0,
0.4867,-211.2,-233.6,-427.2,-274.5,-380.1,-334.2,-134.0,-366.1,-229.7,-553.2,-1238.0,-610.9,-409.1,-195.9,-548.7,6.0,-289.8,-573.7,-385.6,-2.1,-173.8,90.0,-287.1,0,0,882,0,93,0,
0.4900,-209.1,-230.6,-424.2,-271.8,-377.7,-336.9,-130.7,-368.2,-225.8,-549.0,-1227.3,-609.4,-409.6,-189.9,-542.7,5.4,-289.2,-571.6,-377.8,-1.8,-174.1,85.5,-284.1,0,0,888,0,94,0,
0.4933,-214.5,-236.6,-431.7,-281.4,-388.2,-344.4,-138.2,-373.9,-228.2,-559.8,-1238.0,-609.7,-415.0,-200.4,-548.4,16.8,-294.0,-577.9,-388.9,-1.8,-180.7,87.6,-292.8,0,0,894,0,95,0,
0.4967,-216.9,-237.5,-432.0,-281.4,-385.2,-342.6,-132.5,-374.2,-233.6,-560.7,-1238.9,-613.6,-419.2,-200.4,-546.6,31.2,-299.4,-577.9,-388.6,-2.1,-177.4,89.1,-286.2,0,0,900,0,96,0,
0.5000,-219.6,-238.1,-433.2,-282.9,-386.4,-339.0,-131.9,-374.5,-231.2,-560.4,-1239.5,-619.6,-422.2,-201.0,-549.6,33.3,-292.8,-582.7,-386.8,-2.1,-175.6,89.4,-282.3,0,0,906,0,97,0,
0.5033,-217.5,-235.7,-429.0,-276.3,-381.3,-336.9,-128.6,-371.8,-231.8,-555.3,-1237.4,-614.5,-413.2,-200.1,-549.0,20.1,-285.3,-577.0,-391.3,-2.1,-172.9,87.0,-272.7,0,0,912,0,98,0,
0.5067,-213.3,-232.4,-430.5,-273.0,-376.8,-331.5,-126.8,-366.7,-230.0,-549.3,-1235.9,-609.4,-408.8,-195.3,-546.0,5.1,-241.5,-570.1,-384.7,-2.4,-164.8,89.7,-276.3,0,0,918,0,99,0,
0.5100,-211.5,-229.7,-426.9,-270.6,-374.1,-331.2,-127.4,-368.5,-235.1,-546.6,-1236.5,-608.5,-407.3,-195.6,-543.0,5.1,-175.2,-566.8,-376.6,-2.1,-162.7,93.0,-271.5,0,0,924,0,100,0,
0.5133,-215.7,-231.8,-424.2,-272.1,-372.6,-327.6,-127.4,-367.9,-230.0,-546.3,-1232.6,-607.0,-411.1,-198.9,-541.5,14.1,-131.7,-570.1,-374.8,-2.1,-166.9,91.5,-267.9,0,0,930,0,101,0,
0.5167,-215.4,-230.0,-420.6,-272.4,-371.5,-326.7,-127.7,-367.3,-228.5,-548.1,-1234.4,-604.0,-415.3,-201.6,-545.4,28.8,-172.2,-570.7,-373.7,-2.4,-166.3,92.1,-263.4,0,0,936,0,102,0,
0.5200,-214.8,-230.9,-427.2,-276.3,-380.4,-332.4,-131.9,-368.5,-229.1,-552.3,-1234.4,-607.0,-412.0,-197.4,-546.9,33.3,-331.8,-572.5,-379.0,-2.1,-180.7,89.7,-269.1,0,0,942,0,103,0,
0.5233,-209.1,-232.7,-426.6,-276.0,-383.4,-336.9,-135.2,-369.1,-221.9,-557.7,-1245.5,-607.3,-411.1,-192.0,-549.0,24.3,-545.7,-574.0,-389.2,-2.1,-186.1,90.6,-273.6,0,0,948,0,104,0,
0.5267,-213.6,-234.2,-431.1,-279.9,-387.9,-336.0,-132.2,-372.4,-224.9,-561.3,-1244.0,-611.2,-410.8,-196.2,-550.8,4.5,-807.9,-579.4,-387.4,-2.1,-192.7,89.7,-273.0,0,0,954,0,105,0,
0.5300,-210.9,-233.3,-429.6,-279.9,-387.3,-335.1,-131.9,-371.5,-222.2,-563.1,-1248.8,-606.4,-414.1,-191.7,-544.5,2.1,-1030.2,-577.9,-391.3,-2.4,-189.7,83.1,-273.3,0,0,960,0,106,0,
0.5333,-211.2,-232.7,-426.3,-280.2,-387.0,-333.9,-130.7,-374.2,-221.3,-559.5,-1250.3,-604.3,-412.3,-185.7,-537.3,15.9,-1196.7,-580.6,-396.4,-1.8,-187.9,91.2,-277.5,0,0,966,0,107,0,
0.5367,-212.1,-235.1,-427.5,-283.8,-390.6,-338.7,-134.3,-376.0,-231.5,-567.6,-1253.9,-607.9,-409.1,-187.2,-541.2,28.2,-1180.8,-586.9,-401.1,-2.4,-200.5,78.6,-280.5,0,0,972,0,108,0,
0.5400,-213.6,-236.0,-432.0,-285.9,-393.0,-339.0,-135.5,-378.7,-231.5,-569.7,-1252.7,-606.1,-404.9,-187.8,-539.4,30.9,-1068.9,-589.8,-399.9,-2.1,-191.2,78.9,-282.6,0,0,978,0,109,0,
0.5433,-216.0,-236.9,-429.6,-281.7,-391.2,-337.5,-134.9,-376.0,-241.4,-562.2,-1249.4,-609.7,-410.5,-193.8,-547.5,18.6,-808.2,-580.9,-393.1,-2.7,-181.0,83.7,-275.7,0,0,984,0,110,0,
0.5467,-217.2,-238.7,-434.1,-287.4,-396.0,-343.8,-136.7,-379.0,-239.6,-570.9,-1256.6,-613.6,-410.2,-191.4,-545.1,4.5,-565.5,-587.2,-402.3,-2.4,-188.5,81.0,-281.4,0,0,990,0,111,0,
0.5500,-217.5,-240.8,-428.7,-285.6,-397.5,-345.0,-140.6,-382.3,-239.6,-567.0,-1257.4,-616.6,-415.3,-201.6,-551.1,1.2,-379.5,-587.7,-401.7,-2.7,-189.7,76.5,-282.6,0,0,996,0,112,0,
0.5533,-216.6,-235.7,-432.3,-285.0,-390.9,-344.1,-139.1,-380.2,-237.5,-568.8,-1250.0,-612.4,-409.9,-197.4,-549.0,13.2,-403.8,-590.4,-398.7,-2.1,-181.0,75.6,-280.2,0,0,1002,0,113,0,
0.5567,-221.7,-239.6,-431.4,-286.5,-391.5,-343.8,-141.8,-380.2,-236.9,-569.7,-1251.8,-617.2,-417.4,-204.3,-552.6,31.2,-445.8,-588.9,-402.3,-2.4,-187.6,75.0,-285.0,0,0,1008,0,114,0,
0.5600,-225.0,-242.3,-437.1,-289.8,-395.7,-347.4,-144.2,-383.8,-243.8,-566.7,-1250.3,-623.5,-416.5,-198.9,-553.5,35.7,-453.9,-589.5,-400.8,-2.1,-185.2,76.2,-288.0,0,0,1014,0,115,0,
0.5633,-222.6,-241.1,-434.7,-286.5,-390.9,-347.1,-144.5,-383.5,-235.4,-562.2,-1254.2,-619.6,-418.0,-198.3,-558.3,21.3,-424.5,-586.0,-399.0,-2.4,-182.5,69.0,-288.0,0,0,1020,0,116,0,
0.5667,-219.0,-239.9,-434.4,-285.3,-387.9,-345.9,-142.4,-380.8,-231.8,-562.8,-1257.4,-621.1,-420.1,-201.0,-556.5,3.9,-382.5,-587.7,-394.3,-2.1,-177.4,75.0,-289.5,0,0,1026,0,117,0,
0.5700,-220.2,-240.5,-432.6,-288.3,-391.5,-350.7,-144.5,-382.3,-240.2,-564.6,-1260.4,-619.3,-416.8,-200.4,-552.6,0.0,-353.1,-583.0,-396.1,-2.1,-183.4,74.1,-288.3,0,0,1032,0,118,0,
0.5733,-218.4,-238.4,-435.0,-288.3,-391.5,-342.9,-137.6,-381.4,-226.4,-563.1,-1256.0,-615.1,-411.1,-194.4,-552.3,16.8,-343.5,-583.6,-397.5,-2.4,-182.2,81.6,-278.7,0,0,1038,0,119,0,
0.5767,-215.4,-237.8,-430.8,-288.6,-394.8,-342.6,-137.3,-381.4,-234.2,-564.6,-1250.0,-618.4,-405.8,-190.5,-550.8,35.1,-337.5,-586.0,-397.8,-2.4,-175.0,86.4,-275.1,0,0,1044,0,120,0,
0.5800,-211.8,-236.0,-429.9,-288.0,-395.7,-340.2,-138.8,-384.1,-232.7,-561.6,-1250.0,-618.7,-408.8,-193.8,-547.8,36.3,-324.6,-586.0,-396.1,-2.4,-183.1,79.5,-277.5,0,0,1050,0,121,0,
0.5833,-217.5,-242.6,-434.1,-293.4,-402.6,-344.1,-140.9,-385.9,-239.0,-569.7,-1257.4,-625.0,-415.3,-199.8,-550.5,25.2,-318.3,-586.6,-405.6,-2.4,-190.9,74.4,-284.1,0,0,1056,0,122,0,
0.5867,-216.9,-235.7,-434.1,-290.7,-399.6,-342.9,-137.6,-383.5,-233.3,-563.1,-1253.3,-619.9,-409.3,-192.6,-548.4,4.8,-312.3,-582.7,-403.2,-2.4,-195.1,75.0,-280.8,0,0,1062,0,123,0,
0.5900,-224.4,-238.4,-436.2,-293.7,-397.8,-337.2,-136.4,-382.6,-237.2,-562.8,-1252.4,-626.2,-415.3,-199.8,-548.4,4.2,-310.5,-583.0,-398.4,-2.1,-185.5,83.1,-268.8,0,0,1068,0,124,0,
0.5933,-222.3,-241.1,-438.0,-296.1,-399.9,-342.0,-136.7,-382.9,-230.3,-567.9,-1256.3,-621.1,-415.9,-196.2,-546.9,10.5,-309.0,-586.0,-400.5,-2.4,-179.2,77.7,-268.5,0,0,1074,0,125,0,
0.5967,-225.3,-242.6,-440.7,-298.8,-399.3,-346.5,-138.8,-384.7,-235.7,-569.4,-1260.7,-626.8,-420.1,-201.6,-546.9,24.6,-305.7,-592.5,-403.5,-2.4,-179.5,79.5,-270.6,0,0,1080,0,126,0,
0.6000,-229.8,-245.3,-445.5,-303.9,-405.6,-353.1,-139.4,-388.0,-243.8,-575.7,-1261.6,-634.3,-416.8,-193.5,-550.5,28.8,-300.9,-597.9,-410.4,-2.4,-188.8,77.1,-276.3,0,0,1086,0,127,0,
0.6033,-230.1,-242.3,-438.0,-295.2,-398.4,-348.0,-136.4,-381.4,-237.5,-568.8,-1252.7,-628.9,-415.0,-196.2,-545.4,17.1,-301.8,-589.2,-403.2,-2.4,-181.6,84.6,-265.8,0,0,1092,0,128,0,
0.6067,-228.0,-238.4,-439.2,-296.4,-400.8,-345.3,-138.5,-383.8,-233.6,-573.6,-1261.3,-623.2,-415.0,-191.4,-548.4,5.4,-301.8,-590.7,-409.8,-2.1,-180.7,84.0,-273.3,0,0,1098,0,129,0,
0.6100,-227.7,-239.3,-441.6,-294.3,-401.4,-343.5,-134.3,-377.5,-237.5,-568.2,-1260.1,-625.9,-414.7,-197.4,-548.1,-1.2,-305.1,-589.8,-405.3,-2.1,-189.4,85.5,-267.0,0,0,1104,0,130,0,
0.6133,-226.2,-237.2,-438.9,-296.4,-397.2,-342.3,-134.3,-375.4,-234.8,-562.5,-1252.7,-624.4,-412.9,-193.5,-548.1,14.7,-301.2,-586.0,-396.4,-2.7,-178.0,84.3,-266.1,0,0,1110,0,131,0,
0.6167,-225.0,-235.1,-435.6,-293.1,-399.0,-342.0,-132.5,-379.0,-227.3,-569.7,-1254.2,-627.4,-412.9,-194.4,-546.0,27.6,-304.8,-590.1,-398.4,-2.7,-182.8,82.8,-270.9,0,0,1116,0,132,0,
0.6200,-230.7,-241.7,-439.5,-302.4,-404.7,-344.1,-137.9,-384.4,-238.4,-573.9,-1264.0,-629.5,-410.8,-184.2,-545.1,32.1,-310.2,-596.4,-405.9,-2.4,-188.2,80.7,-276.9,0,0,1122,0,133,0,
0.6233,-229.5,-239.3,-441.9,-300.0,-404.1,-348.3,-133.7,-382.6,-235.4,-568.5,-1258.9,-615.7,-414.7,-197.7,-550.5,17.4,-310.8,-591.9,-402.3,-2.1,-179.5,79.8,-272.4,0,0,1128,0,134,0,
0.6267,-230.4,-238.4,-442.2,-304.2,-406.5,-347.7,-134.9,-382.0,-238.1,-570.0,-1262.2,-616.0,-409.3,-191.7,-548.4,3.6,-305.7,-592.8,-405.9,-2.4,-184.0,75.3,-273.9,0,0,1134,0,135,0,
0.6300,-233.1,-244.7,-443.4,-303.9,-406.5,-351.9,-138.5,-389.5,-232.7,-567.9,-1259.2,-623.5,-416.2,-199.5,-547.2,-1.2,-310.5,-591.3,-403.8,-2.4,-184.0,73.5,-273.6,0,0,1140,0,136,0,
0.6333,-229.8,-245.0,-441.0,-302.1,-405.0,-351.6,-140.6,-387.1,-233.3,-567.6,-1261.3,-618.4,-407.9,-191.7,-545.1,14.1,-313.5,-586.9,-405.3,-1.8,-185.8,69.0,-279.3,0,0,1146,0,137,0,
0.6367,-231.0,-244.4,-442.5,-301.5,-403.5,-353.4,-139.1,-386.5,-233.9,-568.5,-1260.7,-619.0,-412.9,-195.0,-549.6,28.8,-311.7,-586.6,-405.9,-2.4,-190.6,69.6,-283.2,0,0,1152,0,138,0,
0.6400,-231.6,-241.4,-438.6,-300.0,-400.5,-347.4,-132.2,-382.0,-229.7,-568.5,-1257.4,-616.3,-413.2,-191.4,-548.1,30.6,-314.7,-588.9,-403.5,-2.4,-183.7,70.2,-279.6,0,0,1158,0,139,0,
0.6433,-234.3,-243.5,-440.7,-302.4,-403.5,-349.2,-138.8,-386.2,-231.2,-569.7,-1264.3,-618.4,-416.5,-191.7,-551.4,18.6,-314.1,-592.8,-405.3,-2.4,-181.9,72.6,-273.6,0,0,1164,0,140,0,
0.6467,-234.6,-242.3,-437.1,-298.8,-404.4,-350.7,-143.3,-385.6,-233.0,-563.1,-1265.5,-619.6,-416.2,-194.4,-555.9,3.9,-311.7,-583.6,-412.8,-2.1,-187.3,69.3,-273.3,0,0,1170,0,141,0,
0.6500,-236.1,-246.2,-440.7,-300.6,-406.8,-355.5,-144.2,-387.1,-242.6,-574.5,-1270.9,-628.9,-424.9,-196.8,-561.3,2.4,-318.3,-590.1,-423.5,-2.4,-188.8,67.2,-276.0,0,0,1176,0,142,0,
0.6533,-239.4,-243.2,-435.0,-298.5,-400.5,-352.5,-141.2,-383.8,-242.3,-568.8,-1263.7,-627.1,-431.2,-199.2,-559.8,11.4,-327.6,-588.0,-419.3,-2.1,-183.1,66.6,-270.0,0,0,1182,0,143,0,
0.6567,-236.7,-247.7,-441.0,-297.9,-400.5,-352.8,-141.8,-384.4,-239.3,-570.9,-1253.3,-633.4,-425.2,-202.2,-562.5,24.0,-328.2,-600.0,-414.3,-2.1,-184.3,70.8,-274.5,0,0,1188,0,144,0,
0.6600,-237.3,-252.5,-447.9,-301.8,-405.0,-353.1,-139.1,-384.1,-257.9,-590.4,-1267.0,-644.8,-428.2,-203.4,-561.3,27.6,-328.2,-620.6,-423.5,-1.8,-188.2,75.0,-273.6,0,0,1194,0,145,0,
0.6633,-237.9,-257.0,-458.9,-312.3,-413.4,-361.5,-141.5,-385.9,-265.1,-625.1,-1302.0,-645.7,-419.2,-205.2,-567.0,17.7,-327.3,-645.4,-447.7,-3.0,-205.9,70.5,-292.2,0,0,1200,0,146,0,
0.6667,-234.0,-248.6,-444.0,-304.8,-411.9,-360.6,-140.6,-386.2,-243.8,-590.4,-1279.9,-628.9,-418.6,-204.9,-566.1,2.7,-324.6,-599.4,-431.0,-2.1,-202.6,71.7,-293.1,0,0,1206,0,147,0,
0.6700,-233.1,-241.1,-430.8,-290.1,-401.7,-354.6,-139.4,-384.1,-234.2,-538.6,-1237.7,-620.2,-411.1,-199.5,-564.9,-0.6,-328.2,-564.7,-403.2,-2.4,-193.6,71.4,-288.0,0,0,1212,0,148,0,
0.6733,-233.4,-242.9,-433.2,-290.7,-399.3,-353.7,-140.6,-384.4,-240.2,-552.0,-1248.8,-625.6,-409.6,-201.6,-567.9,11.7,-329.7,-572.8,-412.2,-1.8,-194.8,69.6,-290.4,0,0,1218,0,149,0,
0.6767,-234.9,-246.2,-436.8,-292.5,-401.1,-352.2,-139.1,-379.6,-244.1,-562.5,-1249.7,-628.6,-412.6,-205.5,-562.8,22.5,-335.1,-580.0,-414.6,-2.1,-201.4,73.2,-288.6,0,0,1224,0,150,0,
0.6800,-230.1,-240.8,-424.2,-283.5,-399.0,-348.0,-140.0,-376.0,-240.5,-534.1,-1237.1,-623.2,-417.7,-207.6,-566.7,32.7,-340.2,-553.4,-409.2,-2.4,-194.8,66.6,-282.6,0,0,1230,0,151,0,
0.6833,-227.1,-238.7,-422.7,-280.8,-393.6,-346.2,-134.9,-373.0,-237.5,-526.6,-1227.0,-620.8,-414.7,-203.1,-566.4,16.8,-334.5,-548.3,-409.8,-1.8,-197.8,69.0,-280.5,0,0,1236,0,152,0,
0.6867,-226.8,-236.9,-420.3,-276.3,-393.3,-348.6,-137.0,-373.0,-238.1,-515.2,-1224.3,-619.9,-415.3,-202.8,-567.6,3.9,-339.3,-541.7,-410.4,-2.4,-210.7,72.3,-283.8,0,0,1242,0,153,0,
0.6900,-232.2,-240.5,-417.0,-276.3,-390.6,-349.5,-136.1,-373.6,-240.8,-509.2,-1219.2,-622.9,-416.5,-199.5,-567.6,-5.1,-345.3,-539.6,-405.3,-2.4,-200.5,67.2,-290.7,0,0,1248,0,154,0,
0.6933,-222.3,-230.0,-403.2,-265.2,-380.1,-338.7,-130.7,-364.6,-233.6,-489.1,-1197.7,-613.0,-414.1,-197.1,-566.1,13.2,-349.8,-525.0,-388.6,-2.4,-193.6,76.5,-283.2,0,0,1254,0,155,0,
0.6967,-221.7,-228.2,-401.2,-261.0,-376.2,-338.7,-132.2,-367.6,-243.2,-484.3,-1192.3,-615.1,-418.0,-198.3,-561.0,24.9,-351.6,-517.2,-388.0,-2.1,-200.5,85.2,-283.2,0,0,1260,0,156,0,
0.7000,-225.9,-226.4,-400.9,-263.1,-380.7,-345.0,-135.5,-373.6,-242.9,-477.8,-1192.9,-616.3,-415.6,-195.3,-563.1,34.5,-362.1,-511.8,-391.3,-2.1,-213.7,82.2,-291.3,0,0,1266,0,157,0,
0.7033,-225.0,-226.7,-398.2,-259.5,-376.5,-344.1,-134.3,-367.9,-242.0,-463.7,-1187.2,-622.0,-421.9,-197.7,-563.4,19.2,-369.6,-497.5,-386.2,-2.1,-210.1,81.0,-297.0,0,0,1272,0,158,0,
0.7067,-223.8,-221.9,-393.4,-254.1,-372.9,-343.5,-132.5,-363.7,-239.6,-449.0,-1177.3,-613.3,-425.5,-202.8,-566.7,5.7,-373.2,-487.3,-379.3,-2.4,-218.5,84.9,-299.1,0,0,1278,0,159,0,
0.7100,-224.7,-224.3,-402.4,-263.1,-384.0,-348.3,-135.5,-364.9,-247.7,-473.3,-1198.9,-626.8,-421.3,-198.6,-563.7,5.1,-371.7,-502.5,-399.0,-2.1,-221.2,83.4,-300.0,0,0,1284,0,160,0,
0.7133,-223.2,-220.1,-392.5,-254.7,-378.9,-344.1,-135.5,-366.1,-241.7,-459.5,-1185.4,-618.4,-420.4,-199.8,-561.6,13.5,-376.5,-488.8,-383.2,-2.1,-221.8,78.6,-295.5,0,0,1290,0,161,0,
0.7167,-222.9,-217.4,-387.4,-253.8,-375.6,-347.7,-136.7,-363.7,-238.4,-446.6,-1171.3,-607.3,-415.0,-200.4,-562.5,25.5,-382.8,-475.9,-375.1,-2.4,-213.1,73.5,-288.6,0,0,1296,0,162,0,
0.7200,-222.3,-218.3,-390.1,-254.4,-374.4,-345.3,-135.2,-367.6,-241.1,-453.8,-1181.2,-604.0,-414.7,-197.1,-556.2,29.1,-387.9,-480.7,-378.4,-2.1,-217.9,76.8,-288.9,0,0,1302,0,163,0,
0.7233,-222.9,-217.7,-389.2,-255.3,-375.3,-342.6,-135.8,-368.5,-238.4,-454.4,-1185.4,-604.3,-417.4,-198.6,-562.5,15.3,-388.8,-481.0,-385.0,-2.4,-208.3,82.8,-291.0,0,0,1308,0,164,0,
0.7267,-225.6,-218.3,-394.9,-260.7,-380.4,-348.3,-138.8,-372.1,-236.3,-467.3,-1198.3,-603.1,-418.0,-196.5,-563.1,1.5,-397.2,-493.6,-392.8,-2.7,-217.6,78.3,-298.5,0,0,1314,0,165,0,
0.7300,-226.5,-222.2,-394.6,-260.4,-384.6,-346.5,-136.7,-375.4,-246.8,-467.0,-1200.6,-608.2,-422.2,-198.9,-563.7,-1.8,-399.9,-499.3,-393.4,-2.1,-221.5,89.4,-293.4,0,0,1320,0,166,0,
0.7333,-224.7,-218.6,-395.8,-261.6,-380.7,-341.4,-135.5,-371.8,-237.8,-470.9,-1194.7,-607.9,-420.4,-205.5,-564.6,9.0,-406.8,-498.1,-391.0,-2.4,-216.7,90.6,-292.8,0,0,1326,0,167,0,
0.7367,-223.5,-218.9,-395.2,-260.1,-383.7,-340.8,-134.0,-368.8,-236.3,-467.6,-1189.6,-607.6,-415.6,-202.2,-570.0,25.5,-410.1,-500.5,-395.8,-2.1,-211.6,84.0,-296.1,0,0,1332,0,168,0,
0.7400,-224.7,-221.3,-396.7,-261.6,-385.8,-343.2,-133.7,-368.2,-242.3,-471.2,-1193.8,-609.1,-419.5,-202.8,-569.7,30.0,-420.0,-504.6,-400.2,-2.1,-218.5,85.5,-293.1,0,0,1338,0,169,0,
0.7433,-229.5,-222.5,-400.3,-264.3,-387.6,-344.7,-133.7,-367.0,-242.9,-479.9,-1205.7,-616.3,-427.6,-202.2,-569.4,16.8,-427.8,-511.2,-398.1,-2.4,-231.7,89.7,-290.4,0,0,1344,0,170,0,
0.7467,-227.7,-221.3,-400.9,-257.4,-382.8,-343.5,-132.8,-364.9,-239.6,-473.9,-1206.3,-617.5,-426.7,-203.7,-568.5,3.6,-423.9,-505.8,-393.7,-1.8,-223.0,91.8,-293.4,0,0,1350,0,171,0,
0.7500,-220.5,-218.9,-392.2,-256.2,-381.9,-343.2,-130.4,-362.2,-242.6,-472.4,-1203.3,-614.5,-419.5,-200.7,-576.6,0.9,-430.8,-500.8,-388.3,-2.1,-219.7,89.1,-290.4,0,0,1356,0,172,0,
0.7533,-218.4,-224.6,-396.1,-260.7,-385.5,-348.0,-134.3,-361.9,-247.7,-486.4,-1209.3,-612.4,-423.7,-206.4,-576.6,12.9,-428.1,-511.5,-391.0,-2.1,-225.1,89.4,-296.4,0,0,1362,0,173,0,
0.7567,-219.6,-227.6,-404.7,-264.6,-389.1,-352.2,-135.8,-367.6,-249.2,-485.2,-1202.4,-613.0,-425.2,-204.6,-573.3,27.9,-432.9,-514.2,-393.7,-2.1,-218.2,88.2,-296.4,0,0,1368,0,174,0,
0.7600,-225.3,-235.1,-410.1,-271.8,-391.8,-352.8,-140.9,-372.1,-258.5,-489.7,-1206.3,-613.9,-428.2,-203.1,-575.7,32.7,-434.1,-525.9,-399.9,-2.1,-219.1,80.1,-301.8,0,0,1374,0,175,0,
0.7633,-225.9,-232.4,-408.6,-271.2,-395.7,-347.4,-136.4,-367.9,-256.1,-486.7,-1210.2,-616.3,-432.7,-212.4,-576.9,16.8,-436.8,-516.6,-404.1,-2.1,-226.6,83.4,-304.5,0,0,1380,0,176,0,
0.7667,-229.5,-231.8,-410.4,-276.3,-400.5,-357.9,-142.7,-371.5,-251.6,-499.3,-1221.6,-617.8,-436.6,-214.2,-583.8,6.6,-432.3,-522.9,-415.2,-2.4,-236.5,74.7,-311.4,0,0,1386,0,177,0,
0.7700,-228.3,-235.1,-412.8,-278.7,-401.7,-355.8,-138.8,-367.6,-258.8,-499.0,-1225.8,-617.2,-443.2,-213.0,-579.6,0.3,-436.8,-522.3,-416.7,-1.8,-241.3,91.2,-305.4,0,0,1392,0,178,0,
0.7733,-228.9,-234.5,-412.5,-277.5,-398.7,-354.3,-135.5,-370.6,-252.5,-502.9,-1230.2,-620.5,-439.3,-208.5,-578.4,14.1,-434.1,-530.6,-414.6,-2.1,-239.8,97.2,-305.4,0,0,1398,0,179,0,
0.7767,-229.8,-236.3,-417.0,-280.5,-402.9,-358.2,-139.7,-370.3,-257.3,-500.8,-1231.1,-627.7,-438.7,-207.9,-578.4,29.1,-433.2,-531.2,-413.4,-2.4,-240.7,98.1,-311.1,0,0,1404,0,180,0,
0.7800,-215.7,-223.1,-403.8,-269.4,-388.8,-350.7,-128.6,-360.7,-241.1,-491.5,-1225.5,-613.0,-420.1,-193.5,-564.6,35.1,-421.5,-521.4,-408.6,-2.1,-225.7,107.7,-297.9,0,0,1410,0,181,0,
0.7833,-223.2,-233.9,-417.0,-284.7,-402.9,-362.1,-141.2,-370.6,-259.4,-502.9,-1229.3,-626.2,-431.8,-196.5,-572.4,20.4,-413.7,-530.6,-423.2,-2.4,-241.6,93.9,-312.3,0,0,1416,0,182,0,
0.7867,-225.3,-240.5,-426.0,-288.6,-409.2,-367.8,-144.8,-374.8,-264.2,-506.5,-1224.0,-631.9,-431.5,-199.5,-576.3,4.5,-394.8,-537.5,-422.6,-2.4,-237.1,94.5,-312.6,0,0,1422,0,183,0,
0.7900,-230.1,-238.4,-425.1,-286.5,-407.4,-366.6,-143.9,-376.0,-259.1,-503.8,-1221.9,-633.7,-438.4,-206.1,-574.8,0.0,-381.6,-532.4,-419.9,-2.1,-238.9,99.9,-307.2,0,0,1428,0,184,0,
0.7933,-233.1,-241.7,-432.0,-292.5,-412.8,-367.8,-144.8,-379.0,-262.4,-513.4,-1230.5,-636.4,-440.2,-208.8,-575.4,17.4,-371.4,-545.9,-425.3,-2.4,-229.3,102.9,-310.8,0,0,1434,0,185,0,
0.7967,-233.4,-243.5,-434.1,-294.6,-417.0,-369.9,-148.4,-381.1,-267.8,-516.4,-1235.6,-635.8,-442.6,-207.6,-575.7,28.2,-356.7,-544.7,-436.4,-2.4,-241.0,108.0,-314.4,0,0,1440,0,186,0,
0.8000,-231.6,-238.4,-429.3,-290.4,-413.7,-364.8,-140.3,-378.7,-262.7,-509.5,-1229.0,-632.8,-439.3,-208.5,-576.6,27.6,-340.2,-536.0,-424.7,-2.4,-222.7,109.2,-309.0,0,0,1446,0,187,0,
0.8033,-231.0,-239.0,-428.7,-294.3,-422.1,-378.3,-150.2,-382.3,-262.1,-511.3,-1235.9,-637.9,-438.4,-199.5,-574.5,21.9,-325.2,-536.9,-431.0,-2.7,-235.3,90.3,-327.0,0,0,1452,0,188,0,
0.8067,-233.1,-241.4,-429.3,-297.3,-418.2,-373.8,-149.9,-385.3,-265.4,-510.7,-1236.5,-637.6,-441.7,-210.3,-577.2,3.3,-327.0,-544.7,-423.2,-2.1,-229.0,90.3,-317.4,0,0,1458,0,189,0,
0.8100,-228.0,-235.7,-426.6,-295.2,-419.4,-373.5,-151.1,-379.9,-259.7,-514.6,-1241.9,-631.3,-440.8,-207.0,-575.4,0.6,-315.9,-545.0,-430.4,-2.4,-234.1,91.2,-323.4,0,0,1464,0,190,0,
0.8133,-230.7,-239.3,-427.5,-297.0,-420.9,-372.9,-150.5,-380.2,-262.7,-516.4,-1240.1,-627.4,-433.9,-201.9,-574.2,15.3,-309.9,-542.0,-430.1,-2.4,-245.5,91.5,-329.6,0,0,1470,0,191,0,
0.8167,-225.3,-239.6,-432.9,-299.4,-423.6,-373.8,-150.5,-379.3,-262.1,-517.6,-1238.9,-624.1,-433.6,-202.8,-575.4,31.2,-303.9,-542.0,-434.0,-2.4,-243.1,89.7,-327.0,0,0,1476,0,192,0,
0.8200,-225.0,-243.8,-438.6,-303.9,-424.2,-371.1,-147.8,-382.0,-270.2,-520.9,-1242.8,-628.0,-429.7,-198.6,-570.0,30.6,-298.2,-547.4,-434.0,-2.1,-250.6,98.1,-329.6,0,0,1482,0,193,0,
0.8233,-227.4,-245.3,-439.5,-304.5,-424.2,-374.7,-151.1,-381.7,-273.2,-524.5,-1247.9,-628.9,-430.6,-195.3,-573.9,16.2,-293.4,-548.9,-437.9,-2.4,-246.7,94.5,-333.5,0,0,1488,0,194,0,
0.8267,-224.4,-242.6,-430.8,-299.4,-417.6,-372.6,-146.9,-380.5,-274.1,-520.3,-1244.0,-625.9,-434.5,-204.9,-576.0,0.3,-289.2,-551.3,-434.3,-2.4,-244.0,98.7,-324.9,0,0,1494,0,195,0,
0.8300,-223.8,-239.9,-419.7,-292.5,-412.8,-366.3,-142.4,-374.8,-260.9,-511.6,-1239.8,-616.3,-436.3,-200.4,-569.4,-3.3,-285.9,-544.1,-420.2,-2.4,-238.3,109.5,-314.1,0,0,1500,0,196,0,
0.8333,-221.7,-239.0,-419.1,-292.5,-415.5,-365.4,-144.8,-373.0,-262.7,-514.3,-1236.5,-614.2,-433.0,-198.0,-569.7,10.2,-283.2,-538.1,-423.8,-2.1,-234.1,101.7,-319.8,0,0,1506,0,197,0,
0.8367,-224.4,-239.9,-420.6,-293.1,-414.0,-363.6,-145.1,-376.9,-267.5,-514.0,-1233.5,-618.7,-433.9,-202.2,-571.2,25.5,-277.8,-534.2,-425.0,-2.7,-237.1,108.9,-320.4,0,0,1512,0,198,0,
0.8400,-226.5,-235.7,-418.5,-288.6,-412.8,-363.6,-143.6,-377.2,-260.3,-512.5,-1227.3,-617.2,-430.9,-200.4,-574.5,28.8,-285.0,-529.8,-423.2,-2.1,-232.3,111.3,-321.0,0,0,1518,0,199,0,
0.8433,-225.3,-234.8,-417.9,-289.8,-413.4,-366.9,-146.6,-379.6,-263.3,-511.0,-1231.7,-616.3,-432.4,-201.0,-574.2,15.9,-280.8,-526.8,-424.1,-1.8,-233.5,108.6,-325.2,0,0,1524,0,200,0,
0.8467,-227.7,-235.4,-418.5,-292.8,-414.9,-361.8,-143.3,-378.4,-262.7,-511.3,-1234.7,-618.7,-439.0,-204.6,-571.2,0.0,-277.8,-529.5,-425.6,-2.1,-236.2,110.7,-324.9,0,0,1530,0,201,0,
0.8500,-226.5,-238.4,-414.0,-290.4,-410.4,-364.2,-146.6,-377.5,-261.8,-506.5,-1229.6,-619.9,-431.8,-200.1,-572.1,-3.0,-281.1,-530.9,-422.3,-1.8,-229.3,114.0,-325.2,0,0,1536,0,202,0,
0.8533,-220.2,-236.3,-413.7,-285.9,-410.4,-363.3,-143.6,-376.6,-266.3,-509.2,-1229.6,-621.4,-426.4,-197.4,-569.1,2.4,-283.8,-532.7,-423.8,-2.1,-233.5,116.7,-323.4,0,0,1542,0,203,0,
0.8567,-221.1,-237.2,-415.8,-287.1,-409.2,-360.0,-142.7,-376.9,-263.0,-508.9,-1232.3,-616.3,-430.0,-200.1,-571.5,20.4,-277.5,-530.3,-426.2,-2.1,-230.8,114.9,-320.1,0,0,1548,0,204,0,
0.8600,-222.3,-237.2,-415.2,-291.3,-415.5,-363.0,-142.4,-375.4,-263.6,-512.2,-1230.8,-622.9,-433.0,-199.5,-572.1,27.0,-285.9,-531.8,-428.0,-2.1,-229.9,115.5,-318.9,0,0,1554,0,205,0,
0.8633,-221.7,-235.1,-416.4,-291.0,-416.1,-363.9,-143.6,-374.8,-260.9,-512.2,-1235.0,-630.4,-431.2,-194.1,-569.1,11.1,-276.6,-530.3,-433.1,-2.1,-235.0,122.1,-319.8,0,0,1560,0,206,0,
0.8667,-220.8,-239.0,-419.4,-294.3,-419.1,-365.7,-143.9,-376.0,-267.5,-513.4,-1240.4,-631.0,-439.0,-202.5,-570.9,1.2,-280.8,-536.3,-435.8,-2.4,-247.6,125.4,-329.0,0,0,1566,0,207,0,
0.8700,-225.9,-237.2,-422.7,-297.3,-420.9,-369.9,-148.1,-378.7,-263.9,-512.2,-1242.2,-627.4,-433.9,-201.6,-574.5,-8.1,-279.9,-534.2,-437.6,-2.1,-245.8,112.8,-333.2,0,0,1572,0,208,0,
0.8733,-222.9,-237.8,-420.6,-297.6,-418.2,-368.4,-148.7,-378.1,-261.5,-520.0,-1242.5,-624.4,-428.5,-198.6,-571.2,3.0,-279.3,-540.8,-435.5,-2.7,-241.3,108.9,-324.6,0,0,1578,0,209,0,
0.8767,-223.2,-242.9,-421.2,-295.2,-413.4,-365.7,-146.9,-378.4,-271.7,-521.2,-1240.4,-628.3,-431.2,-203.4,-575.1,20.1,-283.5,-542.9,-437.6,-2.1,-244.3,113.4,-329.6,0,0,1584,0,210,0,
0.8800,-219.3,-242.6,-429.0,-297.0,-414.0,-366.0,-147.2,-378.7,-274.4,-526.3,-1252.1,-631.9,-433.0,-194.4,-571.5,18.0,-281.1,-545.0,-446.2,-2.4,-243.7,107.7,-331.1,0,0,1590,0,211,0,
0.8833,-217.2,-239.6,-423.9,-289.5,-411.3,-365.1,-144.8,-375.7,-276.2,-517.9,-1243.7,-630.7,-428.5,-198.9,-574.8,15.3,-275.1,-533.6,-437.9,-2.1,-245.8,102.6,-332.3,0,0,1596,0,212,0,
0.8867,-216.9,-236.6,-421.5,-290.1,-408.9,-363.6,-143.6,-374.5,-263.9,-515.5,-1244.9,-625.6,-421.6,-194.4,-570.9,-1.2,-275.1,-534.5,-431.0,-2.1,-240.1,108.9,-329.0,0,0,1602,0,213,0,
0.8900,-215.7,-232.7,-412.5,-280.2,-405.3,-361.2,-139.7,-372.1,-255.5,-508.6,-1238.6,-625.9,-428.8,-206.4,-573.6,-10.2,-267.9,-529.8,-422.0,-2.1,-235.0,115.5,-317.4,0,0,1608,0,214,0,
0.8933,-209.7,-225.8,-407.4,-275.7,-399.0,-355.5,-134.9,-367.3,-252.5,-503.2,-1223.4,-620.5,-412.3,-190.8,-564.6,7.2,-270.0,-522.6,-411.9,-2.4,-227.5,123.9,-314.7,0,0,1614,0,215,0,
0.8967,-215.4,-230.3,-413.1,-281.4,-405.9,-357.9,-140.3,-370.9,-258.2,-507.4,-1225.8,-626.2,-424.6,-197.4,-564.9,18.3,-275.4,-534.2,-422.3,-2.4,-234.1,116.1,-317.1,0,0,1620,0,216,0,
0.9000,-220.2,-231.5,-409.5,-284.7,-407.4,-363.6,-142.4,-375.4,-264.2,-507.4,-1233.2,-626.8,-421.0,-195.9,-565.8,27.9,-271.8,-532.4,-426.5,-2.4,-247.9,107.1,-324.3,0,0,1626,0,217,0,
0.9033,-216.0,-229.4,-408.9,-282.0,-404.4,-357.3,-139.1,-376.3,-266.0,-505.0,-1230.5,-625.9,-422.5,-196.5,-564.9,12.6,-279.9,-527.4,-422.6,-2.4,-232.0,113.4,-315.0,0,0,1632,0,218,0,
0.9067,-221.1,-235.7,-417.3,-291.0,-410.4,-361.8,-143.0,-380.2,-267.5,-516.4,-1237.1,-630.1,-428.2,-201.6,-567.9,-3.9,-274.8,-535.7,-435.5,-2.4,-238.9,106.2,-321.0,0,0,1638,0,219,0,
0.9100,-222.6,-235.4,-420.9,-292.2,-415.8,-361.5,-141.2,-378.4,-270.2,-516.7,-1231.4,-636.4,-435.1,-198.9,-568.8,-3.0,-274.5,-533.6,-432.8,-2.1,-245.8,108.6,-324.3,0,0,1644,0,220,0,
0.9133,-224.1,-234.2,-422.7,-290.7,-414.0,-365.1,-142.1,-376.9,-269.9,-517.0,-1238.6,-633.4,-433.6,-199.5,-570.3,3.0,-273.3,-534.8,-432.8,-2.4,-242.8,105.9,-327.8,0,0,1650,0,221,0,
0.9167,-223.2,-232.7,-418.8,-286.5,-408.6,-357.3,-137.6,-371.5,-264.5,-516.1,-1238.9,-630.1,-433.9,-202.5,-568.2,16.8,-272.7,-542.6,-438.2,-2.4,-238.3,111.0,-327.3,0,0,1656,0,222,0,
0.9200,-224.4,-236.6,-424.5,-288.0,-408.3,-360.3,-139.1,-370.9,-274.1,-524.8,-1234.4,-637.6,-424.0,-198.3,-570.3,26.4,-273.9,-545.9,-439.4,-1.5,-244.9,102.3,-329.9,0,0,1662,0,223,0,
0.9233,-223.5,-238.7,-427.8,-289.2,-406.5,-356.1,-138.2,-369.7,-273.5,-524.2,-1235.0,-641.2,-432.7,-204.6,-573.3,14.7,-272.1,-542.3,-437.9,-2.4,-239.2,100.5,-334.1,0,0,1668,0,224,0,
0.9267,-225.3,-238.7,-426.0,-288.3,-408.0,-357.3,-136.7,-369.1,-281.6,-526.9,-1251.2,-643.9,-435.1,-205.8,-570.0,-4.2,-269.1,-544.7,-440.6,-2.1,-259.3,93.6,-335.9,0,0,1674,0,225,0,
0.9300,-219.6,-240.2,-432.3,-293.4,-417.3,-361.8,-137.6,-370.3,-283.7,-543.1,-1269.4,-643.3,-434.8,-204.0,-574.2,-3.0,-275.4,-552.2,-457.9,-2.1,-265.0,91.2,-348.5,0,0,1680,0,226,0,
0.9333,-216.6,-235.1,-423.9,-285.6,-408.0,-351.6,-132.8,-364.9,-278.3,-533.5,-1250.3,-639.1,-432.1,-202.2,-567.0,-0.6,-273.0,-546.2,-446.5,-2.4,-248.2,95.7,-329.0,0,0,1686,0,227,0,
0.9367,-220.8,-231.5,-420.3,-279.0,-402.9,-354.3,-139.4,-367.6,-269.9,-500.2,-1220.4,-631.9,-431.8,-204.6,-565.8,21.0,-272.7,-529.2,-423.2,-2.7,-250.9,83.7,-328.1,0,0,1692,0,228,0,
0.9400,-224.1,-232.7,-417.0,-277.8,-403.2,-351.9,-140.3,-368.5,-272.9,-495.7,-1218.3,-631.9,-436.3,-204.3,-564.9,17.7,-270.0,-521.7,-416.7,-2.1,-238.0,85.5,-327.8,0,0,1698,0,229,0,
0.9433,-221.7,-238.7,-423.9,-283.8,-412.2,-359.1,-143.9,-371.8,-284.0,-514.6,-1241.0,-639.4,-440.5,-202.2,-568.5,12.3,-269.1,-539.3,-435.5,-2.4,-254.8,87.0,-335.6,0,0,1704,0,230,0,
0.9467,-217.8,-229.4,-413.7,-274.8,-402.0,-350.7,-140.0,-368.2,-270.2,-502.6,-1227.6,-633.4,-435.7,-205.2,-568.8,-2.4,-269.1,-525.6,-421.4,-1.8,-246.1,91.2,-329.6,0,0,1710,0,231,0,
0.9500,-217.5,-232.7,-414.6,-280.8,-407.1,-351.9,-142.1,-373.3,-261.5,-494.5,-1218.3,-635.5,-434.2,-202.5,-567.3,-3.3,-267.6,-523.2,-416.7,-2.1,-254.5,91.5,-332.0,0,0,1716,0,232,0,
0.9533,-220.8,-234.5,-414.6,-281.1,-406.5,-354.0,-139.1,-368.2,-276.2,-511.0,-1233.8,-635.2,-433.6,-204.0,-571.5,8.1,-267.3,-532.7,-422.9,-2.4,-249.1,87.0,-329.9,0,0,1722,0,233,0,
0.9567,-214.8,-226.7,-409.5,-274.8,-401.4,-350.4,-137.0,-368.2,-267.8,-503.8,-1226.4,-634.6,-426.1,-198.6,-569.1,13.2,-270.6,-527.7,-420.2,-2.1,-238.0,93.3,-327.3,0,0,1728,0,234,0,
0.9600,-214.8,-225.5,-402.9,-267.9,-397.8,-348.0,-132.5,-359.5,-261.8,-496.9,-1217.7,-631.3,-424.6,-201.9,-565.2,20.7,-268.8,-522.0,-418.2,-2.4,-238.9,105.3,-323.7,0,0,1734,0,235,0,
0.9633,-218.4,-230.6,-411.6,-275.1,-403.8,-355.5,-135.2,-364.9,-269.6,-505.0,-1227.0,-628.6,-424.9,-201.0,-566.7,9.9,-263.7,-534.8,-432.8,-2.4,-256.6,107.1,-329.3,0,0,1740,0,236,0,
0.9667,-218.1,-230.0,-408.3,-270.3,-394.8,-354.9,-132.5,-362.5,-269.6,-501.1,-1228.7,-624.7,-427.6,-197.4,-565.8,-6.0,-261.3,-529.5,-433.1,-2.4,-241.6,110.4,-323.4,0,0,1746,0,237,0,
0.9700,-223.2,-232.4,-411.6,-276.3,-401.1,-358.2,-135.5,-366.1,-269.6,-505.9,-1231.1,-626.5,-431.5,-198.9,-562.2,-12.0,-258.6,-535.1,-431.0,-2.4,-243.7,99.6,-324.9,0,0,1752,0,238,0,
0.9733,-225.3,-233.9,-412.8,-278.4,-405.6,-358.5,-138.5,-371.2,-272.6,-516.7,-1243.1,-631.3,-432.1,-199.5,-565.5,5.7,-262.5,-546.5,-426.8,-2.4,-245.8,100.8,-323.4,0,0,1758,0,239,0,
0.9767,-218.7,-227.6,-403.2,-269.7,-394.2,-352.5,-131.3,-361.6,-264.8,-508.3,-1227.3,-631.9,-429.4,-192.0,-565.5,18.9,-258.0,-528.3,-419.6,-2.4,-231.4,110.4,-311.7,0,0,1764,0,240,0,
0.9800,-223.8,-228.5,-407.1,-275.1,-398.7,-355.8,-132.8,-368.2,-275.0,-507.4,-1222.2,-624.4,-427.9,-196.8,-561.3,21.0,-256.2,-525.6,-414.9,-2.1,-236.2,106.2,-309.0,0,0,1770,0,241,0,
0.9833,-220.8,-229.7,-409.5,-275.7,-397.8,-356.1,-135.5,-368.2,-269.6,-509.8,-1229.6,-623.8,-421.3,-197.1,-564.3,12.6,-258.6,-530.9,-417.6,-2.4,-237.4,104.1,-309.0,0,0,1776,0,242,0,
0.9867,-225.6,-231.8,-410.1,-271.2,-390.9,-347.7,-129.8,-365.8,-265.7,-502.9,-1222.8,-621.7,-430.9,-199.2,-560.4,-5.4,-248.1,-526.8,-412.5,-2.1,-231.4,118.2,-303.0,0,0,1782,0,243,0,
0.9900,-235.2,-236.9,-418.8,-282.0,-403.8,-355.2,-139.7,-374.5,-272.9,-509.5,-1234.1,-627.4,-436.9,-204.3,-569.7,-6.6,-254.7,-534.2,-427.7,-2.4,-239.8,102.6,-318.3,0,0,1788,0,244,0,
0.9933,-231.0,-235.4,-415.2,-282.6,-401.1,-353.1,-139.1,-373.9,-264.5,-509.5,-1232.9,-621.1,-443.2,-206.7,-565.5,8.4,-254.7,-530.6,-425.6,-2.4,-236.2,105.6,-312.3,0,0,1794,0,245,0,
0.9967,-226.5,-232.4,-414.0,-279.3,-399.0,-352.8,-140.0,-372.7,-266.0,-506.2,-1229.0,-622.6,-437.2,-207.9,-567.3,25.8,-256.2,-529.8,-427.7,-2.4,-227.8,109.2,-309.9,0,0,1800,0,246,0,
1.0000,-224.1,-235.4,-416.7,-285.0,-408.9,-355.2,-138.8,-375.1,-272.3,-509.8,-1228.7,-642.7,-436.0,-198.9,-561.0,29.7,-254.7,-536.6,-431.6,-2.1,-240.7,115.2,-314.1,0,0,1806,0,247,0,
1.0033,-219.6,-231.2,-415.2,-279.0,-408.9,-356.7,-140.9,-370.3,-266.6,-510.7,-1229.6,-630.4,-429.4,-198.6,-562.2,9.9,-256.5,-537.5,-439.7,-2.4,-244.6,112.8,-316.5,0,0,1812,0,248,0,
1.0067,-221.1,-233.6,-416.4,-282.0,-407.4,-356.7,-142.4,-370.9,-263.3,-511.0,-1235.0,-626.5,-430.6,-198.6,-565.5,3.3,-250.8,-537.8,-436.4,-2.4,-246.1,120.3,-307.8,0,0,1818,0,249,0,
1.0100,-221.4,-229.1,-409.2,-275.4,-407.1,-356.1,-139.1,-367.6,-262.1,-512.2,-1232.9,-621.4,-425.8,-193.2,-557.4,-6.9,-251.7,-533.0,-427.1,-2.7,-244.6,123.3,-308.1,0,0,1824,0,250,0,
1.0133,-219.9,-227.3,-405.9,-276.6,-400.5,-351.6,-136.4,-366.4,-260.0,-505.9,-1225.5,-623.5,-424.0,-190.5,-557.1,3.9,-251.4,-533.9,-427.7,-2.1,-231.4,129.0,-304.5,0,0,1830,0,251,0,
1.0167,-219.3,-226.1,-404.4,-272.1,-399.3,-351.6,-138.8,-368.8,-260.9,-502.3,-1224.6,-620.2,-421.6,-186.6,-557.4,21.9,-249.0,-532.4,-421.7,-1.8,-224.8,123.0,-305.4,0,0,1836,0,252,0,
1.0200,-223.5,-231.8,-406.8,-273.0,-404.1,-349.5,-136.7,-370.3,-263.9,-505.0,-1219.2,-627.7,-426.1,-193.8,-561.3,21.3,-248.4,-534.2,-422.0,-2.1,-230.8,131.4,-310.2,0,0,1842,0,253,0,
1.0233,-226.8,-232.1,-407.4,-276.0,-404.4,-349.5,-139.7,-369.4,-257.9,-506.2,-1226.7,-627.1,-426.4,-191.7,-556.2,12.9,-250.5,-531.8,-427.1,-2.1,-227.8,127.5,-312.9,0,0,1848,0,254,0,
1.0267,-228.0,-236.0,-414.3,-283.8,-412.5,-354.0,-141.2,-374.8,-258.8,-511.9,-1236.8,-625.3,-423.4,-187.2,-554.4,0.0,-247.2,-536.9,-437.3,-2.1,-233.8,121.2,-320.4,0,0,1854,0,255,0,
1.0300,-222.3,-230.3,-406.5,-279.3,-405.6,-347.7,-135.5,-368.5,-261.5,-501.7,-1232.9,-625.0,-424.0,-183.0,-543.6,-5.1,-252.9,-525.9,-433.1,-2.1,-229.0,123.9,-315.6,0,0,1860,0,0,0,
1.0333,-224.7,-234.2,-408.0,-283.8,-410.1,-353.1,-139.4,-369.7,-262.1,-509.2,-1233.8,-636.4,-433.3,-190.8,-548.4,7.8,-254.7,-533.0,-437.6,-2.4,-232.3,118.2,-312.9,0,0,1866,0,1,0,
1.0367,-223.8,-235.4,-409.5,-281.7,-411.3,-352.5,-137.3,-365.8,-264.5,-512.5,-1233.2,-637.3,-427.9,-189.0,-549.3,19.5,-249.6,-538.1,-433.4,-2.7,-237.4,115.8,-312.6,0,0,1872,0,2,0,
1.0400,-225.6,-232.1,-408.0,-282.3,-412.2,-351.3,-135.8,-365.2,-259.4,-502.9,-1225.8,-627.1,-426.7,-186.9,-546.0,22.2,-250.8,-525.9,-428.0,-2.1,-230.5,127.8,-307.2,0,0,1878,0,3,0,
1.0433,-224.7,-235.1,-413.7,-281.7,-411.3,-355.8,-137.3,-368.5,-264.2,-502.6,-1231.4,-635.2,-436.6,-192.9,-550.5,14.1,-244.8,-529.5,-434.3,-2.1,-233.2,132.3,-312.6,0,0,1884,0,4,0,
1.0467,-229.8,-234.5,-409.8,-282.3,-412.8,-354.6,-136.1,-369.7,-257.6,-505.9,-1234.1,-632.2,-437.5,-194.4,-555.6,0.6,-249.6,-531.5,-442.6,-2.1,-225.4,121.8,-314.4,0,0,1890,0,5,0,
1.0500,-226.2,-230.3,-403.5,-274.2,-406.8,-346.8,-133.1,-366.1,-254.0,-500.2,-1240.7,-634.3,-431.2,-186.9,-547.2,-5.7,-241.8,-524.1,-438.8,-2.4,-226.9,130.8,-299.7,0,0,1896,0,6,0,
1.0533,-225.3,-230.6,-400.9,-272.1,-402.3,-345.0,-131.9,-365.8,-242.0,-497.8,-1223.1,-633.7,-421.9,-181.5,-548.7,3.6,-249.9,-525.0,-431.9,-1.8,-214.3,135.9,-293.4,0,0,1902,0,7,0,
1.0567,-225.6,-232.4,-402.7,-274.8,-401.4,-346.5,-130.7,-370.3,-262.4,-497.8,-1228.4,-638.8,-427.3,-183.9,-554.1,16.5,-248.7,-526.2,-430.1,-2.1,-223.0,138.6,-294.9,0,0,1908,0,8,0,
1.0600,-229.2,-237.8,-405.9,-280.2,-409.2,-352.2,-134.9,-373.6,-264.5,-505.9,-1237.4,-629.5,-424.6,-186.3,-555.0,24.0,-254.4,-534.2,-425.3,-2.1,-240.7,129.3,-301.8,0,0,1914,0,9,0,
1.0633,-223.5,-232.7,-402.1,-274.5,-405.3,-347.4,-134.6,-370.6,-254.0,-502.9,-1224.6,-628.3,-424.3,-186.9,-557.7,12.6,-244.2,-527.1,-422.0,-2.7,-230.8,124.5,-299.7,0,0,1920,0,10,0,
1.0667,-225.6,-234.5,-402.1,-275.7,-401.7,-347.4,-136.1,-369.1,-261.2,-498.1,-1220.1,-624.1,-426.7,-181.8,-549.6,-0.3,-246.9,-525.3,-423.8,-2.4,-227.2,126.3,-299.7,0,0,1926,0,11,0,
1.0700,-223.5,-228.8,-398.2,-271.8,-398.7,-342.6,-133.7,-365.5,-257.6,-494.2,-1215.0,-623.5,-429.7,-188.4,-559.2,-10.8,-238.8,-523.2,-425.0,-2.4,-231.1,125.4,-297.6,0,0,1932,0,12,0,
1.0733,-225.6,-234.5,-405.9,-273.3,-396.9,-343.2,-134.0,-370.3,-261.2,-503.2,-1221.0,-625.3,-430.6,-189.9,-561.9,-4.2,-245.4,-530.6,-426.5,-2.1,-225.4,124.2,-296.7,0,0,1938,0,13,0,
1.0767,-226.8,-230.6,-402.4,-270.6,-397.5,-345.0,-135.8,-367.6,-258.2,-494.8,-1219.2,-623.8,-438.7,-191.1,-567.0,25.2,-245.7,-526.5,-420.8,-2.4,-226.0,114.6,-294.9,0,0,1944,0,14,0,
1.0800,-228.6,-227.0,-394.9,-266.4,-393.0,-341.1,-134.6,-367.3,-260.3,-488.8,-1217.1,-618.4,-447.4,-200.4,-566.4,23.7,-243.6,-521.4,-413.4,-2.1,-224.2,118.2,-296.1,0,0,1950,0,15,0,
1.0833,-224.4,-226.7,-400.6,-267.9,-398.7,-345.6,-136.1,-369.1,-258.2,-496.9,-1222.5,-620.8,-429.4,-190.8,-567.3,11.4,-240.9,-526.2,-423.8,-2.4,-226.9,111.9,-303.9,0,0,1956,0,16,0,
1.0867,-224.7,-230.9,-396.7,-272.7,-399.9,-348.0,-137.9,-368.2,-264.5,-499.9,-1227.3,-628.0,-427.6,-191.4,-562.2,-5.4,-243.9,-525.9,-428.3,-2.4,-228.7,117.9,-295.5,0,0,1962,0,17,0,
1.0900,-225.0,-228.2,-398.2,-270.3,-395.1,-343.8,-135.5,-366.1,-253.1,-489.4,-1222.5,-625.9,-431.5,-199.2,-569.4,-13.2,-240.3,-517.5,-417.9,-2.4,-218.5,122.1,-288.3,0,0,1968,0,18,0,
1.0933,-227.1,-229.4,-394.0,-271.5,-395.1,-342.6,-136.7,-365.8,-256.7,-494.8,-1224.0,-622.0,-431.2,-198.9,-566.1,0.6,-240.3,-525.3,-417.6,-2.4,-212.2,120.3,-285.6,0,0,1974,0,19,0,
1.0967,-227.7,-229.7,-399.1,-270.3,-395.4,-345.3,-140.6,-365.5,-251.0,-496.3,-1223.4,-623.2,-427.9,-197.1,-566.1,16.5,-238.5,-523.2,-416.7,-2.1,-217.9,111.9,-291.6,0,0,1980,0,20,0,
1.1000,-227.1,-225.8,-389.8,-265.5,-391.5,-342.3,-136.4,-362.5,-254.3,-490.3,-1212.0,-619.9,-426.7,-192.9,-561.3,15.9,-238.2,-514.2,-409.2,-2.7,-219.4,115.5,-291.6,0,0,1986,0,21,0,
1.1033,-223.2,-228.8,-391.9,-268.8,-387.9,-339.9,-133.1,-359.5,-253.4,-491.8,-1219.2,-621.1,-422.5,-191.4,-561.6,7.8,-236.7,-521.7,-409.5,-2.7,-221.2,116.7,-291.9,0,0,1992,0,22,0,
1.1067,-229.2,-234.2,-400.3,-275.1,-394.5,-347.1,-142.4,-365.5,-261.5,-495.4,-1220.7,-620.5,-433.3,-194.7,-568.2,-14.4,-231.9,-525.0,-418.8,-2.1,-226.3,113.1,-299.1,0,0,1998,0,23,0,
1.1100,-232.2,-237.8,-403.2,-277.5,-403.8,-354.6,-148.1,-371.2,-262.4,-498.4,-1231.7,-631.9,-438.1,-197.1,-572.4,-12.3,-235.5,-526.8,-427.1,-2.4,-236.2,104.1,-309.9,0,0,2004,0,24,0,
1.1133,-228.9,-239.6,-402.7,-279.3,-403.5,-355.8,-146.6,-369.1,-266.3,-501.7,-1227.6,-633.4,-434.5,-194.4,-572.4,0.0,-227.1,-527.1,-427.7,-2.1,-235.9,112.8,-311.7,0,0,2010,0,25,0,
1.1167,-227.1,-239.3,-403.2,-278.1,-399.9,-353.1,-147.2,-368.2,-260.6,-504.7,-1224.6,-625.9,-434.2,-204.0,-582.0,14.1,-234.3,-529.2,-433.7,-2.1,-226.9,107.1,-309.3,0,0,2016,0,26,0,
1.1200,-222.9,-235.1,-405.3,-279.6,-402.0,-354.0,-149.3,-368.5,-266.6,-507.4,-1224.9,-624.4,-433.3,-198.0,-574.5,12.3,-235.8,-533.9,-430.4,-2.1,-229.3,102.3,-303.6,0,0,2022,0,27,0,
1.1233,-227.4,-234.8,-404.7,-279.3,-402.0,-356.4,-149.3,-368.5,-261.5,-502.6,-1222.8,-623.2,-437.2,-200.4,-578.4,-0.6,-236.4,-525.9,-415.5,-2.4,-229.6,94.8,-303.9,0,0,2028,0,28,0,
1.1267,-230.4,-234.8,-405.6,-282.3,-402.9,-353.1,-145.4,-369.1,-266.9,-504.7,-1229.0,-627.1,-436.3,-197.1,-573.9,-12.6,-235.2,-528.3,-417.6,-2.1,-222.1,103.8,-302.4,0,0,2034,0,29,0,
1.1300,-233.7,-230.3,-404.1,-277.8,-402.0,-358.5,-147.2,-368.2,-263.6,-500.5,-1227.0,-625.3,-436.0,-192.6,-571.2,-18.9,-234.3,-522.9,-418.2,-2.1,-222.7,99.3,-302.7,0,0,2040,0,30,0,
1.1333,-227.1,-228.2,-405.0,-277.5,-398.4,-355.2,-145.4,-368.2,-252.5,-493.0,-1224.3,-615.1,-436.3,-192.6,-569.4,-4.8,-238.5,-524.1,-418.8,-2.7,-223.3,102.0,-299.4,0,0,2046,0,31,0,
1.1367,-222.3,-227.9,-399.7,-271.2,-389.1,-352.2,-142.1,-364.0,-255.2,-488.2,-1226.7,-610.0,-433.0,-194.4,-564.0,11.7,-240.0,-519.9,-415.5,-2.7,-221.8,105.0,-296.4,0,0,2052,0,32,0,
1.1400,-225.6,-233.9,-404.4,-276.6,-400.8,-354.6,-146.0,-370.0,-260.9,-493.3,-1217.4,-622.3,-430.6,-196.8,-568.8,12.6,-234.0,-523.8,-419.1,-2.1,-222.4,99.9,-298.8,0,0,2058,0,33,0,
1.1433,-225.0,-233.0,-403.8,-275.4,-399.9,-350.1,-143.3,-370.3,-263.9,-490.9,-1212.0,-622.6,-426.1,-195.6,-570.6,2.4,-233.1,-521.7,-416.4,-2.1,-221.2,98.7,-304.2,0,0,2064,0,34,0,
1.1467,-227.1,-229.4,-401.2,-276.0,-399.9,-353.1,-146.6,-370.3,-259.4,-491.5,-1211.4,-620.8,-421.3,-195.0,-564.6,-9.3,-230.7,-516.6,-421.1,-2.4,-225.1,91.2,-304.5,0,0,2070,0,35,0,
1.1500,-222.3,-218.3,-394.0,-264.3,-390.0,-346.2,-139.1,-364.6,-243.5,-478.7,-1200.9,-611.2,-415.6,-186.9,-556.2,-14.7,-233.1,-504.3,-403.2,-2.4,-228.7,101.1,-297.3,0,0,2076,0,36,0,
1.1533,-225.6,-223.4,-394.3,-267.0,-393.3,-349.2,-141.2,-366.1,-248.3,-485.5,-1215.9,-612.1,-421.3,-189.9,-558.9,-7.2,-231.6,-505.8,-412.2,-2.4,-219.4,101.4,-300.9,0,0,2082,0,37,0,
1.1567,-225.9,-228.2,-396.7,-272.7,-396.9,-350.7,-143.9,-368.5,-251.9,-498.4,-1218.3,-613.6,-423.1,-194.1,-562.8,9.0,-236.4,-518.4,-412.8,-2.4,-231.7,98.7,-304.5,0,0,2088,0,38,0,
1.1600,-225.9,-231.8,-401.8,-274.5,-399.0,-351.9,-144.5,-370.6,-256.4,-499.9,-1217.1,-614.5,-424.9,-193.5,-561.3,18.6,-228.9,-522.9,-411.0,-2.4,-220.3,97.8,-303.0,0,0,2094,0,39,0,
1.1633,-224.7,-229.4,-402.7,-279.0,-398.7,-349.8,-144.8,-374.8,-255.8,-495.1,-1216.5,-619.0,-422.8,-188.4,-561.0,0.6,-227.4,-517.5,-414.9,-1.8,-220.9,98.4,-303.6,0,0,2100,0,40,0,
1.1667,-230.4,-230.9,-406.8,-282.3,-404.7,-356.7,-147.2,-375.7,-256.7,-499.9,-1222.8,-624.1,-425.2,-189.3,-561.0,-15.6,-222.9,-521.1,-422.6,-2.4,-227.2,94.5,-309.3,0,0,2106,0,41,0,
1.1700,-228.0,-223.4,-399.7,-278.1,-403.5,-356.4,-144.8,-371.2,-251.6,-494.5,-1228.4,-618.4,-422.8,-192.3,-563.1,-16.8,-223.2,-510.3,-426.5,-2.4,-228.4,101.1,-305.7,0,0,2112,0,42,0,
1.1733,-227.4,-223.7,-397.6,-275.7,-401.4,-357.3,-142.1,-373.0,-256.1,-497.2,-1227.3,-621.1,-429.7,-198.0,-568.2,-5.4,-224.7,-514.8,-424.7,-2.4,-230.5,104.1,-305.4,0,0,2118,0,43,0,
1.1767,-221.7,-220.1,-400.3,-276.9,-405.0,-357.3,-146.0,-374.5,-248.6,-499.0,-1227.6,-621.7,-423.7,-187.2,-561.6,9.3,-216.0,-514.8,-428.3,-2.4,-225.1,103.2,-307.8,0,0,2124,0,44,0,
1.1800,-217.5,-220.7,-396.1,-269.7,-395.4,-348.0,-141.5,-372.4,-252.5,-494.5,-1219.5,-616.3,-426.7,-190.5,-557.4,14.1,-207.3,-515.7,-414.3,-1.8,-223.0,99.3,-301.2,0,0,2130,0,45,0,
1.1833,-217.5,-221.9,-395.5,-272.1,-396.6,-349.2,-143.3,-372.1,-253.4,-492.4,-1226.1,-616.9,-433.3,-191.1,-557.4,3.0,-204.6,-518.1,-419.6,-2.4,-220.3,102.9,-301.8,0,0,2136,0,46,0,
1.1867,-209.1,-218.0,-392.2,-264.0,-391.5,-342.0,-135.2,-367.6,-247.1,-488.8,-1219.2,-610.3,-427.0,-180.6,-554.4,-10.8,-203.1,-512.4,-417.3,-2.1,-220.0,108.0,-290.4,0,0,2142,0,47,0,
1.1900,-215.4,-221.3,-393.7,-270.9,-397.8,-350.7,-142.1,-373.3,-239.6,-488.2,-1225.2,-614.2,-422.2,-183.9,-562.8,-16.5,-201.0,-505.2,-436.7,-2.4,-220.0,100.2,-300.9,0,0,2148,0,48,0,
1.1933,-218.1,-226.1,-399.1,-273.9,-402.9,-353.7,-141.8,-377.2,-246.8,-491.2,-1222.8,-623.8,-424.6,-192.3,-561.6,-4.5,-202.5,-515.1,-426.8,-2.4,-221.5,99.6,-300.3,0,0,2154,0,49,0,
1.1967,-220.2,-226.7,-402.7,-274.2,-404.1,-360.6,-148.4,-376.0,-250.1,-496.3,-1226.1,-626.5,-424.6,-192.0,-568.5,7.8,-209.1,-522.0,-426.2,-2.4,-226.3,90.6,-304.5,0,0,2160,0,50,0,
1.2000,-218.7,-223.4,-396.7,-269.4,-397.2,-357.3,-147.8,-372.1,-250.4,-493.6,-1221.0,-620.2,-421.9,-192.0,-568.2,15.9,-212.7,-514.8,-425.3,-2.1,-218.8,93.9,-292.5,0,0,2166,0,51,0,
1.2033,-221.1,-223.1,-397.9,-270.0,-397.5,-354.6,-144.8,-371.5,-251.9,-492.1,-1227.9,-633.1,-426.4,-189.9,-571.5,4.8,-208.2,-509.7,-420.5,-2.7,-220.9,96.0,-294.6,0,0,2172,0,52,0,
1.2067,-225.9,-226.1,-398.2,-272.7,-399.0,-354.0,-143.9,-373.6,-251.6,-494.5,-1229.3,-629.5,-435.1,-198.6,-572.1,-12.9,-207.0,-518.1,-422.9,-2.1,-215.8,91.5,-294.9,0,0,2178,0,53,0,
1.2100,-228.6,-228.5,-399.4,-276.3,-407.1,-359.7,-149.3,-377.2,-250.7,-493.3,-1224.9,-628.9,-433.3,-192.0,-571.2,-21.0,-217.8,-519.3,-424.7,-2.4,-229.6,82.8,-301.5,0,0,2184,0,54,0,
1.2133,-233.4,-228.8,-399.7,-277.8,-408.3,-363.0,-149.6,-374.5,-263.6,-502.3,-1220.1,-637.6,-440.2,-195.6,-575.1,-4.8,-231.6,-520.5,-428.3,-1.8,-246.1,84.3,-297.9,0,0,2190,0,55,0,
1.2167,-233.1,-226.4,-400.6,-278.4,-405.9,-357.6,-147.8,-374.5,-254.0,-502.0,-1222.8,-620.5,-435.7,-194.1,-575.4,9.6,-231.3,-519.3,-429.2,-2.7,-236.5,88.5,-294.9,0,0,2196,0,56,0,
1.2200,-230.1,-226.4,-397.9,-273.9,-405.0,-356.4,-147.8,-373.3,-259.7,-494.5,-1219.8,-617.5,-432.4,-191.4,-567.0,14.7,-234.6,-517.5,-429.8,-2.4,-232.3,92.1,-299.4,0,0,2202,0,57,0,
1.2233,-225.6,-223.4,-397.9,-271.5,-400.2,-354.9,-151.4,-370.6,-252.5,-489.4,-1220.1,-617.8,-432.4,-186.0,-564.0,3.3,-237.3,-510.0,-430.7,-2.1,-227.8,84.0,-301.8,0,0,2208,0,58,0,
1.2267,-230.1,-228.5,-403.2,-276.6,-408.6,-360.3,-150.8,-371.5,-260.0,-496.9,-1224.3,-622.6,-438.7,-189.9,-566.4,-10.5,-236.4,-517.8,-429.5,-2.7,-234.4,88.8,-306.6,0,0,2214,0,59,0,
1.2300,-226.2,-234.2,-404.1,-279.9,-410.7,-363.9,-155.9,-374.8,-261.8,-502.6,-1237.4,-620.2,-433.0,-198.9,-573.0,-20.7,-232.5,-525.0,-434.6,-2.4,-241.3,80.1,-310.5,0,0,2220,0,60,0,
1.2333,-227.7,-232.1,-404.1,-276.0,-407.7,-361.2,-153.5,-374.2,-261.2,-500.5,-1230.8,-618.7,-439.9,-201.6,-572.7,-5.7,-229.5,-523.8,-434.9,-2.1,-236.8,84.9,-303.9,0,0,2226,0,61,0,
1.2367,-227.7,-232.1,-404.7,-273.3,-408.0,-360.3,-153.8,-374.8,-267.5,-497.8,-1234.1,-623.2,-439.9,-205.8,-576.9,8.4,-227.4,-522.3,-432.2,-2.1,-231.4,82.5,-309.9,0,0,2232,0,62,0,
1.2400,-227.4,-232.7,-406.5,-275.1,-404.1,-358.8,-153.2,-371.8,-265.7,-495.1,-1221.6,-617.8,-441.7,-204.6,-577.5,13.5,-220.5,-520.2,-429.5,-1.8,-239.5,89.1,-307.5,0,0,2238,0,63,0,
1.2433,-225.0,-229.7,-395.2,-270.6,-401.1,-352.5,-147.8,-370.9,-257.0,-490.3,-1215.6,-609.1,-447.7,-211.5,-580.8,-1.5,-213.6,-513.3,-423.8,-2.4,-229.6,92.1,-302.4,0,0,2244,0,64,0,
1.2467,-228.9,-230.9,-398.5,-273.3,-402.0,-353.7,-145.7,-371.5,-256.4,-491.8,-1215.0,-611.5,-441.1,-200.4,-573.6,-5.1,-210.3,-518.4,-422.6,-2.1,-223.6,94.2,-294.6,0,0,2250,0,65,0,
1.2500,-232.5,-237.5,-405.3,-277.8,-406.8,-360.9,-154.7,-376.6,-261.5,-498.4,-1219.5,-625.9,-436.3,-209.1,-576.3,-18.3,-210.9,-522.3,-429.2,-1.8,-233.2,85.5,-300.9,0,0,2256,0,66,0,
1.2533,-235.5,-238.1,-405.6,-279.3,-407.4,-360.0,-154.4,-373.6,-269.9,-504.4,-1228.2,-629.5,-438.7,-203.4,-571.8,-6.3,-215.4,-529.5,-432.8,-2.1,-235.6,84.6,-303.3,0,0,2262,0,67,0,
1.2567,-232.5,-235.7,-399.7,-273.9,-402.6,-357.6,-148.7,-370.9,-265.1,-502.0,-1227.6,-631.3,-443.5,-213.0,-578.4,9.9,-209.7,-530.0,-428.0,-2.4,-230.2,83.1,-299.4,0,0,2268,0,68,0,
1.2600,-231.0,-234.8,-397.9,-274.2,-404.1,-354.9,-148.7,-370.3,-266.9,-493.3,-1226.4,-628.9,-440.2,-211.5,-576.6,18.9,-212.4,-524.4,-428.0,-2.4,-224.8,83.7,-293.4,0,0,2274,0,69,0,
1.2633,-230.7,-231.5,-400.9,-277.5,-404.1,-357.6,-149.3,-369.4,-265.1,-497.2,-1224.3,-632.8,-443.8,-207.9,-581.7,1.8,-212.1,-520.2,-434.9,-2.1,-235.6,89.1,-290.4,0,0,2280,0,70,0,
1.2667,-230.4,-231.8,-402.9,-279.3,-408.0,-356.7,-149.9,-370.6,-266.6,-501.7,-1229.0,-632.8,-440.8,-207.0,-576.9,-12.9,-211.8,-523.2,-437.9,-2.1,-236.2,86.1,-297.0,0,0,2286,0,71,0,
1.2700,-226.8,-227.0,-398.2,-275.4,-405.9,-357.3,-145.4,-370.0,-262.4,-493.6,-1224.3,-630.4,-436.6,-205.2,-570.6,-18.0,-210.0,-512.4,-440.3,-2.1,-232.3,81.9,-298.8,0,0,2292,0,72,0,
1.2733,-226.8,-230.6,-400.9,-279.9,-410.1,-356.1,-152.3,-377.5,-258.8,-496.6,-1225.2,-634.0,-439.3,-205.5,-574.8,-4.8,-212.4,-520.8,-435.5,-2.4,-232.3,83.4,-295.2,0,0,2298,0,73,0,
1.2767,-222.9,-226.1,-401.5,-276.9,-410.1,-353.7,-149.9,-377.8,-266.0,-500.2,-1225.2,-630.1,-439.6,-207.0,-577.5,11.4,-216.0,-528.0,-434.3,-2.7,-238.9,86.4,-291.6,0,0,2304,0,74,0,
1.2800,-225.3,-227.3,-400.3,-273.0,-406.8,-349.5,-144.5,-376.6,-263.0,-492.7,-1215.9,-630.1,-433.3,-204.3,-571.2,12.3,-217.8,-519.6,-429.8,-2.1,-230.5,94.5,-290.7,0,0,2310,0,75,0,
1.2833,-221.7,-224.6,-400.3,-272.4,-407.7,-351.0,-143.3,-374.5,-260.0,-492.1,-1227.0,-623.8,-431.8,-202.5,-572.7,2.7,-214.2,-514.8,-437.6,-2.4,-223.6,92.4,-288.0,0,0,2316,0,76,0,
1.2867,-221.7,-228.5,-402.9,-273.6,-408.9,-353.1,-145.4,-376.0,-260.3,-493.0,-1227.9,-627.7,-432.4,-204.9,-575.4,-14.4,-215.1,-518.4,-437.3,-2.4,-226.9,95.7,-286.5,0,0,2322,0,77,0,
1.2900,-222.6,-226.7,-404.4,-277.8,-407.1,-354.0,-146.0,-379.0,-259.7,-492.4,-1228.2,-624.4,-427.0,-196.2,-570.0,-21.3,-209.7,-524.4,-440.0,-2.4,-228.7,95.7,-284.1,0,0,2328,0,78,0,
1.2933,-221.7,-223.4,-400.0,-274.8,-403.8,-345.9,-143.6,-370.9,-250.1,-492.1,-1223.7,-621.7,-429.1,-201.0,-569.1,-5.1,-210.6,-515.1,-430.4,-2.1,-220.6,98.7,-276.9,0,0,2334,0,79,0,
1.2967,-222.9,-225.5,-404.1,-276.3,-406.2,-346.8,-141.5,-367.9,-254.3,-495.1,-1226.7,-624.7,-432.7,-202.2,-579.0,10.5,-211.5,-517.5,-432.5,-2.7,-223.9,109.5,-279.0,0,0,2340,0,80,0,
1.3000,-219.9,-218.9,-398.5,-273.9,-405.9,-344.7,-141.8,-367.0,-244.4,-486.7,-1219.8,-626.2,-428.8,-203.1,-569.7,11.7,-216.0,-508.2,-433.4,-2.4,-214.0,96.9,-276.6,0,0,2346,0,81,0,
1.3033,-216.9,-217.4,-395.8,-272.1,-402.3,-348.9,-140.6,-364.0,-243.5,-483.4,-1217.4,-614.8,-416.2,-195.0,-561.6,3.0,-212.4,-507.3,-433.7,-2.1,-217.9,99.0,-280.5,0,0,2352,0,82,0,
1.3067,-219.9,-214.7,-395.5,-275.4,-404.7,-352.8,-144.5,-365.8,-243.8,-484.6,-1215.0,-610.3,-421.3,-190.2,-561.3,-13.2,-211.8,-504.9,-428.3,-2.1,-213.4,102.3,-284.1,0,0,2358,0,83,0,
1.3100,-220.2,-212.3,-392.5,-272.1,-399.9,-350.7,-140.3,-364.6,-239.6,-483.1,-1217.1,-609.7,-422.8,-196.8,-563.7,-20.4,-208.8,-504.3,-428.6,-1.8,-211.0,100.8,-277.2,0,0,2364,0,84,0,
1.3133,-219.3,-219.2,-392.2,-272.1,-403.5,-352.2,-144.5,-367.9,-245.6,-484.9,-1216.5,-618.7,-419.2,-196.8,-563.1,-10.8,-196.8,-507.0,-424.1,-2.1,-210.7,92.1,-278.7,0,0,2370,0,85,0,
1.3167,-221.1,-221.6,-394.3,-276.3,-405.0,-358.2,-148.7,-367.6,-248.9,-486.7,-1215.9,-617.8,-412.0,-196.2,-570.3,3.0,-151.8,-507.9,-436.1,-2.4,-219.1,90.0,-287.7,0,0,2376,0,86,0,
1.3200,-228.6,-229.1,-400.0,-277.5,-410.7,-360.0,-153.2,-376.9,-256.1,-492.4,-1215.9,-622.9,-421.6,-201.6,-572.1,15.3,-74.4,-512.7,-438.2,-2.4,-220.3,88.2,-289.2,0,0,2382,0,87,0,
1.3233,-224.4,-222.2,-398.8,-274.5,-408.6,-358.5,-148.7,-370.6,-247.1,-488.8,-1215.6,-619.6,-416.5,-198.9,-568.8,2.4,-28.5,-510.3,-434.3,-2.4,-219.1,88.8,-283.8,0,0,2388,0,88,0,
1.3267,-225.3,-226.4,-405.6,-279.0,-411.6,-362.1,-152.0,-373.6,-245.3,-490.3,-1218.6,-629.2,-424.9,-204.6,-572.1,-6.3,-74.7,-516.0,-432.5,-2.4,-221.5,86.7,-284.1,0,0,2394,0,89,0,
1.3300,-225.3,-227.6,-408.0,-282.3,-411.9,-365.7,-152.6,-376.6,-253.1,-494.2,-1232.0,-637.6,-419.8,-197.7,-571.8,-16.8,-239.7,-516.9,-442.9,-2.7,-228.1,83.7,-287.4,0,0,2400,0,90,0,
1.3333,-227.4,-231.2,-406.5,-284.1,-409.8,-362.1,-153.2,-377.2,-256.7,-500.2,-1232.9,-632.5,-420.1,-202.8,-571.2,-4.2,-467.1,-521.7,-443.8,-3.0,-235.0,87.0,-278.1,0,0,2406,0,91,0,
1.3367,-223.2,-227.3,-403.5,-279.0,-409.5,-365.1,-150.8,-376.9,-246.5,-501.7,-1232.9,-623.5,-414.4,-198.9,-572.7,9.6,-730.5,-519.0,-453.7,-2.1,-242.2,86.7,-281.1,0,0,2412,0,92,0,
1.3400,-219.6,-228.8,-407.4,-279.3,-410.7,-365.4,-149.6,-375.7,-247.4,-503.8,-1235.3,-624.1,-418.3,-199.5,-573.3,13.5,-968.1,-522.6,-448.3,-2.1,-234.1,88.8,-277.5,0,0,2418,0,93,0,
1.3433,-217.2,-223.7,-402.9,-280.5,-410.1,-364.2,-148.4,-376.6,-246.5,-503.8,-1234.4,-622.6,-412.6,-193.2,-574.8,2.1,-1136.7,-524.7,-440.6,-2.4,-244.3,91.8,-286.2,0,0,2424,0,94,0,
1.3467,-212.1,-222.2,-400.3,-278.1,-406.5,-361.8,-143.6,-375.1,-241.7,-499.0,-1229.3,-616.3,-410.8,-188.7,-563.4,-10.8,-1140.9,-517.2,-440.3,-2.1,-233.5,94.2,-282.6,0,0,2430,0,95,0,
1.3500,-209.7,-217.7,-397.0,-272.4,-402.3,-360.6,-140.9,-368.2,-237.8,-490.3,-1226.7,-611.2,-400.7,-177.0,-550.2,-15.6,-1045.2,-507.6,-437.3,-2.4,-236.5,98.4,-280.5,0,0,2436,0,96,0,
1.3533,-218.1,-229.4,-406.5,-279.9,-407.4,-361.8,-146.9,-378.1,-251.6,-492.1,-1229.9,-620.2,-410.5,-188.1,-558.9,-5.7,-780.0,-515.4,-438.8,-2.4,-232.3,91.8,-279.9,0,0,2442,0,97,0,
1.3567,-221.7,-229.1,-406.5,-280.8,-407.4,-362.1,-144.2,-376.6,-248.3,-496.0,-1229.6,-617.5,-422.5,-202.8,-561.6,11.7,-552.3,-514.5,-442.3,-2.4,-230.5,99.3,-282.6,0,0,2448,0,98,0,
1.3600,-222.0,-230.9,-406.5,-276.6,-405.6,-359.7,-143.9,-373.9,-250.7,-494.2,-1223.4,-617.8,-415.3,-200.7,-562.8,12.9,-372.9,-513.0,-440.0,-2.4,-228.4,99.3,-280.2,0,0,2454,0,99,0,
1.3633,-217.2,-228.5,-413.1,-280.8,-411.9,-361.5,-143.3,-379.0,-249.8,-502.0,-1228.2,-613.3,-414.4,-203.1,-567.3,0.3,-355.2,-519.9,-442.0,-2.1,-225.7,91.5,-280.5,0,0,2460,0,100,0,
1.3667,-215.7,-223.7,-406.5,-276.0,-404.7,-357.3,-144.5,-370.6,-251.3,-493.0,-1221.6,-611.2,-412.6,-198.9,-563.7,-10.2,-378.0,-511.8,-432.8,-2.4,-227.8,87.0,-272.4,0,0,2466,0,101,0,
1.3700,-220.5,-222.5,-408.3,-273.9,-404.1,-357.0,-144.8,-371.5,-244.4,-497.5,-1232.0,-612.4,-412.6,-197.7,-563.7,-21.9,-376.2,-513.3,-447.4,-2.1,-229.6,87.6,-272.4,0,0,2472,0,102,0,
1.3733,-218.4,-225.5,-404.4,-275.1,-402.0,-359.1,-149.3,-374.5,-248.3,-496.3,-1224.3,-616.9,-418.3,-195.3,-564.3,-6.0,-335.7,-513.6,-440.3,-2.1,-227.8,88.8,-276.0,0,0,2478,0,103,0,
1.3767,-220.2,-221.3,-404.7,-273.9,-404.1,-357.6,-145.4,-374.5,-242.3,-494.8,-1216.2,-617.2,-425.2,-203.7,-567.0,9.0,-290.7,-516.3,-436.1,-2.1,-226.0,96.6,-267.9,0,0,2484,0,104,0,
1.3800,-220.2,-223.1,-404.1,-276.3,-405.3,-357.6,-146.3,-376.9,-248.6,-501.4,-1224.3,-624.1,-418.3,-190.2,-572.4,18.0,-266.1,-522.0,-439.4,-2.4,-220.6,88.5,-270.9,0,0,2490,0,105,0,
1.3833,-223.8,-224.6,-407.4,-276.6,-408.0,-357.9,-142.1,-377.8,-249.8,-500.5,-1234.1,-615.7,-420.1,-199.2,-568.8,6.6,-257.7,-513.9,-444.1,-2.4,-220.9,92.7,-270.3,0,0,2496,0,106,0,
1.3867,-223.2,-224.9,-407.1,-277.5,-407.1,-361.2,-145.1,-379.3,-247.4,-496.9,-1229.9,-615.1,-413.2,-196.8,-572.7,-9.3,-244.8,-515.4,-448.3,-2.1,-229.9,93.3,-275.1,0,0,2502,0,107,0,
1.3900,-219.0,-226.4,-407.4,-276.9,-410.1,-363.9,-144.5,-379.6,-248.0,-496.3,-1229.3,-618.7,-414.1,-193.8,-568.8,-19.8,-230.4,-516.9,-455.2,-2.4,-220.3,97.5,-265.2,0,0,2508,0,108,0,
1.3933,-217.5,-224.3,-407.4,-276.3,-405.3,-362.4,-145.1,-380.8,-247.4,-498.4,-1227.9,-621.1,-411.4,-189.9,-565.2,-4.5,-221.7,-520.5,-447.7,-2.7,-226.9,91.8,-275.1,0,0,2514,0,109,0,
1.3967,-226.8,-232.4,-412.2,-280.2,-408.6,-367.8,-151.4,-386.2,-252.8,-503.2,-1235.3,-624.7,-421.6,-199.2,-573.0,9.3,-217.2,-521.7,-452.8,-2.4,-226.3,83.7,-278.4,0,0,2520,0,110,0,
1.4000,-223.5,-227.3,-406.8,-275.1,-407.4,-363.6,-148.1,-382.6,-253.4,-503.5,-1229.3,-626.2,-420.7,-198.3,-574.5,15.9,-214.8,-518.4,-452.5,-2.4,-225.7,87.9,-280.2,0,0,2526,0,111,0,
1.4033,-226.8,-232.4,-413.4,-277.2,-408.0,-363.3,-148.4,-383.8,-251.9,-501.7,-1233.5,-628.3,-422.8,-199.5,-576.9,9.3,-209.4,-515.1,-459.4,-2.1,-225.7,81.6,-283.8,0,0,2532,0,112,0,
1.4067,-224.1,-228.5,-410.7,-274.5,-404.1,-360.6,-143.9,-377.8,-247.7,-499.9,-1226.7,-625.6,-421.0,-197.4,-573.0,-10.2,-205.8,-508.2,-447.7,-2.4,-223.6,86.1,-285.6,0,0,2538,0,113,0,
1.4100,-224.4,-232.1,-410.4,-271.8,-399.0,-356.4,-144.8,-375.7,-259.1,-502.3,-1231.4,-626.5,-423.7,-196.5,-575.4,-19.8,-204.9,-508.8,-457.0,-2.1,-229.0,84.6,-285.6,0,0,2544,0,114,0,
1.4133,-226.2,-228.2,-407.7,-276.9,-405.3,-354.0,-144.2,-379.0,-248.3,-507.1,-1236.8,-625.3,-425.5,-195.3,-575.4,-4.2,-208.2,-520.8,-468.3,-2.1,-226.9,85.2,-288.9,0,0,2550,0,115,0,
1.4167,-225.6,-230.3,-405.9,-273.3,-400.8,-351.9,-143.6,-378.1,-248.3,-500.2,-1232.3,-625.0,-427.6,-197.7,-577.5,9.9,-207.0,-517.2,-459.1,-2.7,-226.3,80.4,-282.6,0,0,2556,0,116,0,
1.4200,-228.9,-230.9,-406.8,-272.7,-401.1,-350.7,-141.8,-378.4,-251.9,-502.9,-1225.8,-630.1,-428.8,-199.8,-574.2,17.1,-207.3,-515.4,-445.9,-2.1,-220.3,85.8,-282.6,0,0,2562,0,117,0,
1.4233,-229.5,-231.2,-406.8,-273.3,-397.5,-352.2,-144.2,-377.5,-250.1,-503.8,-1236.8,-627.4,-432.4,-202.5,-584.1,-3.0,-198.9,-513.3,-451.9,-2.1,-223.0,87.0,-282.9,0,0,2568,0,118,0,
1.4267,-231.9,-234.5,-412.5,-279.6,-406.8,-357.9,-143.3,-379.3,-256.4,-506.2,-1241.3,-627.7,-430.9,-201.6,-579.9,-8.4,-207.0,-517.8,-457.9,-2.4,-233.5,82.8,-294.9,0,0,2574,0,119,0,
1.4300,-228.3,-231.8,-409.5,-275.7,-402.9,-357.0,-142.7,-378.7,-253.1,-502.0,-1240.7,-627.1,-430.6,-204.9,-575.7,-19.5,-203.4,-518.4,-457.0,-2.1,-236.5,84.0,-284.7,0,0,2580,0,120,0,
1.4333,-227.4,-234.5,-414.0,-278.7,-406.5,-357.0,-140.9,-378.4,-252.2,-506.2,-1233.2,-630.1,-425.8,-200.1,-572.7,-7.5,-212.4,-525.9,-460.3,-2.7,-231.4,85.5,-280.5,0,0,2586,0,121,0,
1.4367,-224.7,-232.7,-411.9,-277.2,-404.1,-350.4,-142.4,-381.7,-254.9,-503.5,-1225.2,-631.3,-425.5,-201.6,-576.3,9.0,-210.6,-523.5,-454.6,-2.4,-228.7,84.3,-280.2,0,0,2592,0,122,0,
1.4400,-224.4,-230.9,-412.5,-277.5,-407.7,-350.4,-142.7,-378.7,-252.8,-505.9,-1224.3,-642.7,-427.6,-201.6,-578.1,14.7,-214.5,-528.3,-450.4,-2.1,-222.4,83.7,-278.7,0,0,2598,0,123,0,
1.4433,-225.0,-229.7,-416.1,-283.8,-412.2,-359.4,-145.7,-380.8,-255.2,-510.1,-1235.6,-643.9,-421.0,-197.1,-581.1,1.2,-207.9,-526.8,-458.8,-2.4,-230.2,84.3,-285.3,0,0,2604,0,124,0,
1.4467,-225.0,-231.5,-416.7,-280.8,-413.1,-354.9,-142.1,-378.1,-254.9,-507.1,-1232.6,-629.8,-425.2,-201.0,-579.9,-18.3,-204.9,-527.7,-457.3,-2.1,-219.7,87.9,-273.9,0,0,2610,0,125,0,
1.4500,-222.9,-226.7,-412.2,-280.5,-409.2,-354.9,-140.3,-376.9,-245.9,-506.5,-1235.9,-622.3,-433.6,-208.5,-579.3,-19.5,-204.0,-522.9,-468.0,-2.4,-223.3,90.0,-273.0,0,0,2616,0,126,0,
1.4533,-224.1,-227.3,-407.4,-281.1,-408.9,-357.9,-142.4,-376.3,-239.6,-511.3,-1236.2,-625.6,-423.1,-200.1,-576.9,-5.7,-209.4,-519.0,-465.6,-2.7,-222.7,81.9,-273.6,0,0,2622,0,127,0,
1.4567,-221.1,-226.7,-407.1,-278.7,-406.5,-350.4,-139.1,-372.7,-249.8,-506.8,-1239.2,-629.5,-417.7,-197.1,-575.7,7.2,-207.0,-520.8,-457.9,-2.1,-219.1,87.3,-275.1,0,0,2628,0,128,0,
1.4600,-223.5,-226.7,-404.4,-279.6,-407.1,-353.1,-143.6,-372.4,-247.1,-502.9,-1231.7,-619.9,-414.7,-197.1,-574.2,13.5,-207.3,-514.2,-455.2,-2.1,-220.9,86.1,-280.8,0,0,2634,0,129,0,
1.4633,-223.5,-230.3,-409.2,-281.1,-408.6,-358.5,-143.3,-376.3,-248.9,-507.7,-1240.7,-621.4,-414.4,-198.3,-575.7,3.0,-215.1,-515.7,-463.9,-2.1,-225.4,84.3,-285.6,0,0,2640,0,130,0,
1.4667,-224.1,-225.5,-404.4,-273.0,-405.9,-351.6,-140.6,-376.3,-248.0,-501.4,-1237.4,-619.9,-412.3,-191.1,-570.0,-12.6,-213.0,-511.2,-460.3,-2.1,-229.0,90.3,-281.4,0,0,2646,0,131,0,
1.4700,-216.0,-219.8,-399.7,-270.6,-400.2,-348.6,-136.7,-372.4,-232.7,-493.6,-1229.3,-613.6,-406.4,-180.9,-567.6,-18.3,-215.7,-504.3,-464.4,-2.4,-220.3,93.0,-282.0,0,0,2652,0,132,0,
1.4733,-222.9,-229.1,-408.9,-281.7,-410.1,-358.8,-143.0,-383.8,-245.0,-508.0,-1239.8,-628.9,-420.4,-192.6,-579.0,-7.5,-214.5,-519.0,-473.1,-2.1,-229.3,93.3,-291.9,0,0,2658,0,133,0,
1.4767,-224.4,-225.8,-403.2,-277.2,-400.8,-354.3,-142.1,-382.6,-241.4,-502.6,-1233.5,-628.6,-425.5,-191.4,-582.9,3.9,-216.6,-520.8,-463.0,-2.7,-224.2,92.7,-282.0,0,0,2664,0,134,0,
1.4800,-222.9,-221.6,-401.8,-274.2,-402.0,-351.0,-143.0,-379.9,-245.9,-502.3,-1229.3,-621.4,-416.8,-187.8,-576.6,8.1,-220.2,-515.4,-457.0,-2.1,-208.9,98.4,-270.0,0,0,2670,0,135,0,
1.4833,-229.2,-227.3,-406.5,-275.7,-404.1,-358.8,-146.6,-383.2,-249.2,-505.3,-1241.9,-622.0,-420.1,-193.5,-582.3,-6.0,-222.6,-517.5,-462.7,-2.1,-225.7,92.4,-278.1,0,0,2676,0,136,0,
1.4867,-235.5,-234.8,-413.1,-281.7,-412.5,-365.4,-151.1,-388.6,-257.9,-510.1,-1247.6,-631.9,-433.9,-203.7,-591.9,-17.4,-222.6,-529.8,-469.8,-2.1,-237.7,84.9,-289.2,0,0,2682,0,137,0,
1.4900,-235.5,-230.3,-407.4,-278.4,-407.1,-363.0,-151.4,-386.5,-248.6,-507.1,-1250.3,-627.7,-428.8,-199.2,-594.6,-25.5,-228.0,-525.3,-468.6,-2.7,-236.8,81.6,-286.5,0,0,2688,0,138,0,
1.4933,-231.3,-229.1,-402.1,-273.3,-403.5,-355.8,-151.7,-384.4,-250.4,-506.2,-1235.0,-626.2,-425.5,-200.7,-593.1,-13.5,-231.3,-522.6,-459.7,-2.1,-227.8,84.9,-279.9,0,0,2694,0,139,0,
1.4967,-232.5,-228.5,-401.8,-270.6,-398.7,-353.7,-149.3,-379.9,-251.3,-506.2,-1233.2,-629.2,-425.2,-197.1,-596.1,4.2,-230.7,-520.8,-466.5,-2.4,-227.8,78.0,-276.6,0,0,2700,0,140,0,
1.5000,-234.3,-232.7,-405.0,-272.7,-400.8,-351.0,-151.4,-379.9,-256.7,-511.9,-1237.4,-633.7,-428.5,-199.8,-592.2,8.1,-233.7,-525.6,-460.0,-2.4,-231.7,80.4,-279.6,0,0,2706,0,141,0,
1.5033,-230.7,-229.4,-398.5,-272.1,-395.1,-348.6,-147.5,-377.8,-252.8,-505.3,-1237.7,-629.8,-428.2,-207.3,-596.1,-5.1,-234.6,-519.0,-460.0,-2.1,-233.8,77.1,-275.4,0,0,2712,0,142,0,
1.5067,-232.2,-230.0,-402.1,-269.4,-397.2,-347.4,-149.0,-374.5,-251.9,-505.0,-1239.8,-631.0,-431.5,-199.8,-592.8,-19.2,-234.9,-519.6,-458.5,-2.1,-226.6,82.2,-271.8,0,0,2718,0,143,0,
1.5100,-231.9,-227.6,-405.3,-272.4,-401.1,-351.6,-147.8,-375.4,-257.6,-503.2,-1239.5,-631.9,-436.0,-204.9,-597.0,-24.9,-237.0,-523.2,-462.7,-2.1,-228.4,81.0,-277.5,0,0,2724,0,144,0,
1.5133,-232.8,-231.2,-408.0,-276.6,-402.9,-348.3,-144.8,-373.0,-251.6,-504.7,-1236.5,-631.0,-434.5,-195.3,-594.6,-11.1,-239.1,-529.8,-455.2,-2.1,-223.3,87.6,-275.4,0,0,2730,0,145,0,
1.5167,-228.9,-230.3,-405.0,-273.0,-402.3,-346.8,-146.3,-367.0,-252.2,-501.7,-1227.0,-632.5,-432.1,-198.6,-594.9,0.9,-246.3,-518.7,-449.2,-2.1,-225.7,83.7,-270.3,0,0,2736,0,146,0,
1.5200,-223.8,-227.0,-403.2,-270.0,-402.0,-345.0,-139.7,-364.9,-251.6,-504.1,-1231.7,-628.3,-422.2,-201.6,-590.7,10.8,-252.3,-518.7,-453.1,-2.4,-230.5,103.5,-273.3,0,0,2742,0,147,0,
1.5233,-221.4,-220.7,-399.7,-266.4,-394.5,-336.9,-137.6,-361.6,-249.8,-499.3,-1229.0,-629.2,-423.1,-195.9,-579.0,-2.7,-252.3,-511.8,-454.6,-2.4,-223.0,110.4,-267.9,0,0,2748,0,148,0,
1.5267,-227.7,-230.9,-408.3,-277.2,-401.4,-346.2,-145.1,-371.8,-254.3,-512.5,-1239.5,-630.4,-428.2,-200.7,-587.7,-21.9,-252.3,-525.6,-470.4,-1.8,-231.7,100.8,-275.1,0,0,2754,0,149,0,
1.5300,-222.6,-235.1,-408.9,-276.0,-404.4,-349.2,-143.9,-370.9,-261.5,-507.1,-1240.7,-633.1,-430.9,-206.7,-588.3,-29.1,-255.9,-521.1,-468.6,-2.1,-234.7,102.9,-271.5,0,0,2760,0,150,0,
1.5333,-225.0,-232.4,-411.6,-276.0,-405.3,-350.4,-144.8,-372.1,-257.6,-505.6,-1241.0,-630.1,-427.6,-196.8,-582.9,-9.6,-262.8,-522.0,-458.8,-2.7,-233.5,108.6,-276.9,0,0,2766,0,151,0,
1.5367,-225.0,-230.6,-410.4,-274.8,-408.0,-351.9,-144.8,-372.4,-251.9,-504.1,-1238.6,-624.1,-427.9,-197.4,-586.5,-0.9,-264.6,-521.7,-456.7,-2.7,-234.7,107.7,-280.8,0,0,2772,0,152,0,
1.5400,-228.6,-232.1,-414.9,-282.6,-411.3,-354.9,-143.0,-376.9,-255.2,-512.2,-1240.4,-631.9,-427.0,-194.7,-590.1,3.6,-271.5,-530.0,-464.2,-2.4,-236.8,106.5,-282.0,0,0,2778,0,153,0,
1.5433,-229.5,-227.3,-408.9,-280.8,-409.8,-354.9,-145.1,-377.2,-260.0,-510.1,-1241.3,-638.5,-430.9,-199.5,-593.7,-0.6,-276.3,-524.4,-463.3,-2.1,-239.8,106.8,-282.9,0,0,2784,0,154,0,
1.5467,-229.8,-234.5,-409.8,-282.3,-414.6,-358.8,-148.7,-380.2,-260.3,-510.7,-1246.1,-631.6,-425.2,-194.1,-591.9,-17.1,-281.1,-525.3,-466.2,-2.7,-232.9,102.0,-286.2,0,0,2790,0,155,0,
1.5500,-229.5,-229.4,-402.4,-276.0,-406.2,-354.9,-144.5,-378.1,-252.8,-507.7,-1244.3,-620.2,-432.4,-192.0,-591.3,-24.0,-287.1,-520.2,-469.2,-2.1,-232.0,107.7,-283.2,0,0,2796,0,156,0,
1.5533,-230.1,-229.4,-401.8,-274.8,-409.5,-353.4,-142.4,-375.4,-252.2,-509.2,-1241.3,-619.0,-432.7,-196.8,-601.5,-12.0,-292.5,-516.0,-471.3,-2.4,-233.5,111.0,-284.1,0,0,2802,0,157,0,
1.5567,-230.7,-229.7,-408.3,-277.5,-410.1,-358.8,-148.4,-377.2,-252.5,-508.6,-1242.2,-625.6,-425.5,-187.2,-600.9,1.8,-289.5,-517.8,-469.2,-2.1,-234.4,107.1,-290.1,0,0,2808,0,158,0,
1.5600,-228.9,-227.3,-402.1,-273.0,-408.0,-352.5,-149.9,-374.5,-248.0,-503.2,-1241.0,-631.6,-425.5,-197.1,-604.8,13.8,-299.4,-521.1,-468.6,-2.1,-239.2,98.7,-298.2,0,0,2814,0,159,0,
1.5633,-225.9,-224.3,-405.0,-273.3,-405.6,-354.3,-150.5,-376.6,-255.5,-505.6,-1246.4,-621.1,-423.7,-189.0,-600.9,-3.6,-299.1,-528.9,-465.0,-2.4,-243.1,103.5,-297.0,0,0,2820,0,160,0,
1.5667,-222.9,-221.3,-400.9,-270.6,-403.5,-351.6,-146.6,-372.7,-243.5,-499.6,-1245.5,-610.9,-416.5,-192.3,-596.7,-22.2,-304.5,-519.6,-470.7,-2.1,-232.6,108.0,-295.5,0,0,2826,0,161,0,
1.5700,-222.9,-223.1,-404.4,-273.0,-408.3,-357.3,-148.4,-373.0,-243.8,-505.6,-1239.8,-611.2,-415.0,-189.6,-601.2,-23.4,-303.3,-513.0,-466.5,-2.1,-243.1,105.3,-300.3,0,0,2832,0,162,0,
1.5733,-224.1,-227.0,-406.8,-276.0,-409.5,-360.0,-147.2,-373.9,-243.2,-502.3,-1232.6,-611.5,-415.3,-193.2,-604.5,-12.3,-306.3,-520.8,-463.6,-2.1,-238.6,102.6,-299.4,0,0,2838,0,163,0,
1.5767,-223.2,-220.1,-398.2,-268.2,-401.1,-349.8,-146.3,-367.9,-237.5,-493.6,-1221.6,-608.2,-424.3,-201.0,-602.1,-0.6,-304.2,-508.2,-456.1,-2.4,-226.6,101.7,-286.2,0,0,2844,0,164,0,
1.5800,-225.6,-218.9,-398.8,-264.9,-399.9,-351.0,-146.0,-368.5,-247.4,-492.1,-1224.0,-613.0,-426.7,-203.4,-604.8,9.0,-309.6,-509.1,-456.7,-2.7,-230.8,91.8,-292.2,0,0,2850,0,165,0,
1.5833,-225.9,-214.4,-392.2,-262.2,-398.7,-349.8,-146.9,-365.5,-239.0,-490.9,-1224.6,-603.7,-427.3,-203.7,-606.0,-0.3,-303.3,-506.7,-449.8,-2.4,-232.9,101.4,-291.3,0,0,2856,0,166,0,
1.5867,-225.6,-221.3,-399.1,-264.6,-401.4,-352.8,-147.2,-369.1,-244.1,-492.1,-1227.9,-615.7,-424.0,-203.1,-603.6,-17.7,-305.1,-514.5,-457.0,-2.4,-228.7,103.2,-289.2,0,0,2862,0,167,0,
1.5900,-229.8,-221.3,-399.1,-263.7,-395.4,-348.6,-144.5,-364.9,-246.5,-497.2,-1233.2,-616.3,-425.8,-198.9,-604.2,-19.8,-290.7,-513.6,-456.4,-2.1,-233.5,103.2,-291.9,0,0,2868,0,168,0,
1.5933,-232.2,-229.7,-403.8,-267.9,-400.8,-350.1,-145.1,-367.9,-252.5,-505.0,-1238.0,-626.8,-426.1,-199.2,-602.1,-7.5,-282.3,-522.6,-462.7,-2.4,-233.5,101.7,-294.3,0,0,2874,0,169,0,
1.5967,-235.8,-228.2,-400.0,-266.7,-397.5,-347.4,-142.4,-366.7,-258.8,-506.2,-1236.2,-627.1,-424.3,-196.8,-600.6,2.1,-266.7,-516.6,-462.1,-2.4,-236.2,115.2,-294.6,0,0,2880,0,170,0,
1.6000,-232.5,-229.1,-399.1,-264.6,-398.7,-351.3,-138.5,-368.2,-256.7,-499.6,-1227.9,-629.5,-425.2,-195.9,-586.5,12.3,-253.5,-513.3,-466.8,-2.4,-235.0,122.4,-291.3,0,0,2886,0,171,0,
1.6033,-229.2,-225.8,-397.3,-261.3,-394.5,-348.3,-139.4,-366.7,-251.9,-497.5,-1222.8,-625.9,-422.5,-202.2,-587.1,-5.1,-241.2,-510.3,-458.5,-2.1,-239.8,121.2,-288.6,0,0,2892,0,172,0,
1.6067,-234.9,-235.4,-410.4,-273.3,-406.2,-356.1,-142.4,-374.5,-262.7,-510.1,-1238.6,-635.2,-426.4,-202.5,-590.7,-20.1,-229.8,-521.4,-463.9,-2.1,-239.5,124.5,-292.2,0,0,2898,0,173,0,
1.6100,-237.3,-230.9,-406.5,-271.5,-402.9,-351.0,-138.5,-374.8,-257.3,-502.3,-1235.3,-634.0,-424.6,-199.5,-589.8,-24.0,-212.7,-519.0,-455.8,-2.4,-243.1,127.2,-292.2,0,0,2904,0,174,0,
1.6133,-237.3,-234.5,-414.6,-280.5,-407.1,-350.4,-136.1,-382.3,-265.4,-509.5,-1243.7,-640.0,-424.9,-192.9,-585.6,-9.6,-205.5,-524.7,-468.3,-2.1,-244.3,128.1,-291.0,0,0,2910,0,175,0,
1.6167,-239.1,-233.9,-413.4,-278.1,-406.2,-351.0,-136.1,-377.5,-269.3,-510.7,-1244.0,-642.7,-436.3,-199.8,-586.5,0.3,-196.5,-527.1,-469.5,-2.1,-234.1,133.8,-290.7,0,0,2916,0,176,0,
1.6200,-239.7,-231.8,-411.0,-282.0,-405.0,-351.3,-135.5,-376.3,-262.1,-510.7,-1243.4,-637.0,-431.8,-198.9,-588.6,7.8,-188.1,-531.5,-468.3,-2.4,-236.5,132.6,-296.7,0,0,2922,0,177,0,
1.6233,-238.5,-231.2,-409.8,-279.3,-405.9,-351.3,-137.6,-377.2,-262.4,-504.7,-1238.9,-634.0,-431.5,-205.2,-589.8,-9.0,-185.4,-527.1,-458.2,-2.4,-237.4,130.8,-292.5,0,0,2928,0,178,0,
1.6267,-239.1,-232.4,-411.0,-280.5,-407.7,-351.9,-134.6,-376.6,-258.5,-509.8,-1244.0,-631.3,-418.9,-195.3,-587.7,-21.3,-176.1,-528.3,-464.7,-2.4,-237.1,123.0,-295.8,0,0,2934,0,179,0,
1.6300,-237.0,-227.0,-409.8,-277.8,-406.5,-352.8,-136.1,-376.0,-254.0,-504.4,-1240.4,-627.4,-418.6,-193.2,-588.9,-30.0,-171.6,-515.1,-460.0,-2.4,-238.0,125.7,-294.6,0,0,2940,0,180,0,
1.6333,-235.5,-229.7,-411.9,-280.2,-411.6,-359.4,-136.7,-376.9,-253.4,-505.6,-1237.7,-629.5,-416.8,-192.6,-592.8,-17.4,-166.2,-518.1,-468.9,-2.4,-235.3,127.2,-306.3,0,0,2946,0,181,0,
1.6367,-232.5,-226.1,-411.6,-278.1,-408.6,-359.1,-135.8,-374.2,-256.1,-508.3,-1239.5,-630.4,-416.8,-189.9,-586.2,-6.3,-162.9,-521.7,-476.1,-2.1,-239.2,125.7,-304.2,0,0,2952,0,182,0,
1.6400,-230.4,-222.2,-405.3,-276.0,-405.9,-355.8,-135.8,-372.7,-255.8,-509.8,-1237.1,-627.1,-414.1,-190.2,-585.0,0.9,-156.0,-519.6,-462.1,-2.4,-223.0,121.2,-300.3,0,0,2958,0,183,0,
1.6433,-233.4,-221.0,-401.8,-273.3,-404.7,-358.5,-140.0,-373.0,-254.9,-503.5,-1235.6,-628.9,-418.6,-189.6,-588.3,-9.0,-158.4,-517.2,-457.0,-2.7,-229.3,118.2,-303.3,0,0,2964,0,184,0,
1.6467,-234.6,-220.1,-400.0,-272.7,-404.7,-355.5,-141.8,-373.0,-248.3,-499.0,-1231.7,-634.9,-416.5,-189.3,-589.8,-27.6,-156.3,-517.2,-452.2,-2.1,-220.6,116.4,-303.9,0,0,2970,0,185,0,
1.6500,-229.5,-215.9,-397.0,-268.5,-401.4,-354.0,-140.9,-373.3,-242.9,-495.1,-1231.4,-623.5,-408.8,-181.5,-585.9,-32.1,-155.7,-513.3,-453.1,-2.4,-229.6,114.3,-303.9,0,0,2976,0,186,0,
1.6533,-225.0,-213.8,-391.9,-263.7,-396.9,-350.1,-140.3,-368.8,-240.5,-492.7,-1221.6,-611.2,-402.8,-181.5,-587.4,-24.3,-150.0,-506.7,-449.8,-2.4,-225.4,116.7,-306.0,0,0,2982,0,187,0,
1.6567,-225.3,-213.2,-391.0,-267.3,-392.1,-349.5,-143.3,-368.5,-243.8,-493.3,-1228.2,-608.8,-401.6,-177.3,-584.4,-4.8,-156.3,-505.8,-463.9,-2.1,-224.8,117.9,-299.4,0,0,2988,0,188,0,
1.6600,-227.1,-213.2,-391.9,-264.0,-388.5,-346.8,-137.0,-368.2,-242.3,-496.6,-1222.8,-614.8,-412.0,-188.7,-589.2,0.6,-149.1,-501.3,-456.4,-2.7,-217.6,114.0,-284.4,0,0,2994,0,189,0,
1.6633,-221.4,-206.0,-388.9,-263.4,-392.1,-345.6,-137.6,-367.6,-237.8,-492.7,-1220.1,-613.6,-409.3,-180.3,-583.8,-13.8,-147.6,-494.8,-452.2,-2.1,-223.9,109.8,-290.4,0,0,3000,0,190,0,
1.6667,-224.4,-212.6,-391.9,-269.1,-398.4,-351.3,-140.3,-371.2,-243.2,-494.2,-1232.9,-620.2,-415.3,-187.8,-587.7,-21.9,-152.4,-505.8,-457.6,-2.4,-227.2,105.3,-294.3,0,0,3006,0,191,0,
1.6700,-223.2,-208.1,-388.0,-261.3,-393.0,-351.3,-140.9,-369.1,-239.6,-492.4,-1233.2,-611.8,-407.6,-181.2,-585.3,-30.9,-149.4,-504.9,-455.2,-2.1,-223.3,115.2,-290.7,0,0,3012,0,192,0,
1.6733,-223.2,-207.8,-386.8,-261.3,-393.9,-351.3,-138.2,-366.4,-238.7,-487.6,-1224.3,-607.3,-411.7,-190.2,-591.0,-26.4,-150.9,-499.3,-446.5,-2.4,-215.8,114.6,-290.1,0,0,3018,0,193,0,
1.6767,-212.4,-200.3,-374.5,-251.1,-384.9,-338.4,-126.5,-361.0,-236.3,-476.6,-1213.2,-600.1,-406.7,-174.3,-579.6,-9.6,-146.4,-486.7,-439.4,-2.1,-209.5,129.6,-282.3,0,0,3024,0,194,0,
1.6800,-224.1,-214.1,-392.2,-263.4,-392.1,-345.0,-134.3,-371.5,-243.8,-487.0,-1220.1,-610.9,-417.1,-186.6,-585.0,-3.0,-148.5,-499.6,-453.7,-2.7,-211.3,129.0,-288.0,0,0,3030,0,195,0,
1.6833,-227.4,-215.6,-391.3,-263.1,-396.9,-350.1,-140.6,-375.4,-251.3,-484.3,-1226.7,-613.9,-422.2,-189.3,-585.3,-14.1,-150.3,-499.3,-461.5,-2.4,-222.4,121.2,-288.9,0,0,3036,0,196,0,
1.6867,-228.0,-215.6,-396.7,-271.2,-399.3,-352.8,-140.3,-381.4,-242.9,-492.1,-1224.0,-606.1,-421.0,-186.3,-582.6,-24.0,-142.5,-506.7,-447.4,-2.1,-217.0,120.9,-293.4,0,0,3042,0,197,0,
1.6900,-228.0,-217.7,-394.9,-270.0,-402.6,-351.0,-139.4,-381.1,-242.0,-494.2,-1223.1,-612.7,-415.9,-188.7,-585.0,-32.7,-143.7,-503.7,-454.3,-2.1,-217.0,122.4,-294.9,0,0,3048,0,198,0,
1.6933,-227.1,-223.4,-401.5,-275.1,-402.6,-348.3,-136.7,-381.7,-245.9,-497.5,-1226.7,-622.0,-418.6,-187.5,-583.2,-21.9,-143.4,-514.2,-453.7,-2.1,-210.4,128.1,-295.8,0,0,3054,0,199,0,
1.6967,-229.8,-219.2,-401.2,-276.6,-403.2,-347.4,-135.5,-381.7,-247.7,-497.8,-1229.0,-619.0,-415.6,-189.0,-585.3,-5.4,-140.7,-510.6,-457.3,-2.7,-221.5,136.8,-299.1,0,0,3060,0,200,0,
1.7000,-232.8,-221.3,-405.9,-277.8,-401.7,-348.9,-133.4,-381.1,-245.9,-498.7,-1229.0,-621.1,-415.6,-188.4,-582.0,-3.6,-142.8,-511.8,-452.5,-1.8,-219.7,141.6,-293.7,0,0,3066,0,201,0,
1.7033,-231.3,-223.7,-409.2,-275.7,-401.7,-347.7,-135.2,-381.4,-246.2,-497.8,-1237.1,-623.2,-415.0,-190.2,-581.1,-6.3,-140.7,-518.7,-456.7,-2.4,-217.6,135.6,-295.8,0,0,3072,0,202,0,
1.7067,-231.3,-222.8,-408.3,-273.6,-392.7,-347.1,-134.9,-379.3,-251.0,-499.3,-1235.3,-623.5,-416.5,-185.1,-583.8,-30.9,-142.8,-517.5,-453.4,-2.7,-213.1,132.6,-287.4,0,0,3078,0,203,0,
1.7100,-228.6,-221.0,-408.3,-273.9,-396.3,-344.7,-135.8,-377.8,-239.0,-499.6,-1223.4,-619.0,-415.3,-190.8,-582.0,-30.6,-139.5,-517.2,-454.0,-2.7,-220.6,137.7,-285.9,0,0,3084,0,204,0,
1.7133,-228.6,-223.4,-408.9,-277.8,-397.2,-342.6,-134.6,-378.4,-247.1,-501.1,-1220.1,-622.6,-416.5,-186.3,-582.3,-25.2,-148.8,-517.5,-453.7,-2.4,-211.6,136.8,-285.0,0,0,3090,0,205,0,
1.7167,-229.5,-221.9,-406.2,-277.8,-399.3,-343.8,-133.4,-379.0,-245.9,-496.6,-1224.0,-622.9,-415.3,-185.4,-581.4,-5.4,-147.3,-511.8,-460.3,-2.4,-217.6,135.6,-287.4,0,0,3096,0,206,0,
1.7200,-231.9,-223.4,-408.0,-276.6,-399.3,-344.7,-131.9,-379.6,-246.5,-494.8,-1221.3,-623.8,-415.0,-189.9,-582.0,-2.1,-152.1,-514.5,-451.9,-2.4,-212.8,140.4,-279.0,0,0,3102,0,207,0,
1.7233,-225.6,-218.9,-400.3,-268.8,-389.1,-342.3,-131.0,-374.2,-238.4,-487.6,-1217.4,-617.8,-403.4,-174.3,-573.9,-12.0,-143.4,-505.2,-451.0,-2.1,-211.6,143.4,-282.6,0,0,3108,0,208,0,
1.7267,-231.0,-217.7,-403.2,-272.4,-393.3,-345.6,-137.0,-378.4,-245.9,-490.6,-1229.3,-622.9,-409.3,-181.8,-579.9,-26.1,-147.9,-509.4,-470.1,-2.4,-214.0,134.4,-281.4,0,0,3114,0,209,0,
1.7300,-228.0,-216.2,-400.9,-273.3,-394.5,-348.0,-137.0,-376.6,-241.7,-490.0,-1238.0,-619.9,-403.4,-177.3,-580.5,-30.9,-138.3,-507.9,-462.7,-2.4,-219.7,131.4,-278.1,0,0,3120,0,210,0,
1.7333,-227.1,-215.9,-398.2,-272.1,-396.3,-345.3,-135.8,-377.8,-242.6,-491.8,-1224.3,-616.3,-407.3,-180.9,-586.2,-24.3,-144.0,-510.0,-450.7,-2.4,-226.3,132.0,-276.6,0,0,3126,0,211,0,
1.7367,-224.7,-214.4,-400.3,-271.2,-395.1,-349.2,-135.2,-377.8,-237.8,-496.6,-1227.3,-619.0,-400.4,-175.2,-585.9,-7.8,-146.4,-513.3,-451.0,-2.7,-225.1,125.7,-275.1,0,0,3132,0,212,0,
1.7400,-225.3,-219.2,-399.7,-273.6,-398.1,-349.2,-137.3,-378.7,-248.3,-492.7,-1220.1,-619.3,-404.3,-179.1,-584.1,1.5,-149.1,-510.3,-450.4,-2.4,-216.4,126.6,-268.2,0,0,3138,0,213,0,
1.7433,-225.0,-219.2,-403.5,-276.0,-401.1,-348.0,-140.6,-381.7,-245.3,-498.1,-1223.7,-622.3,-404.6,-176.7,-590.7,-11.4,-143.4,-512.4,-451.3,-2.4,-219.1,120.0,-271.5,0,0,3144,0,214,0,
1.7467,-221.1,-216.5,-401.5,-271.2,-402.3,-341.1,-140.9,-376.3,-241.7,-493.3,-1221.3,-623.2,-407.0,-183.0,-589.2,-25.8,-142.2,-509.7,-453.7,-2.4,-211.3,123.3,-269.1,0,0,3150,0,215,0,
1.7500,-219.0,-218.9,-405.6,-276.3,-405.0,-348.3,-142.4,-377.2,-242.0,-491.8,-1236.2,-626.5,-405.8,-177.3,-589.5,-28.8,-140.4,-512.4,-455.2,-2.4,-221.8,120.9,-273.6,0,0,3156,0,216,0,
1.7533,-220.8,-219.2,-400.6,-276.9,-403.8,-352.5,-142.1,-378.1,-244.4,-495.7,-1231.4,-625.6,-405.2,-179.7,-588.9,-22.8,-142.8,-517.8,-452.5,-2.1,-217.9,120.0,-274.8,0,0,3162,0,217,0,
1.7567,-219.0,-219.5,-406.8,-281.7,-410.7,-350.4,-143.0,-379.0,-245.3,-505.6,-1232.0,-620.5,-404.0,-172.8,-583.2,-9.3,-134.1,-524.7,-458.2,-2.7,-222.1,125.4,-278.4,0,0,3168,0,218,0,
1.7600,-216.3,-216.5,-399.1,-273.3,-399.9,-341.1,-134.9,-373.9,-234.5,-496.0,-1219.5,-619.3,-406.1,-174.3,-575.4,-3.0,-138.3,-515.1,-444.1,-2.4,-206.2,137.1,-269.7,0,0,3174,0,219,0,
1.7633,-221.4,-220.1,-404.4,-278.4,-405.9,-347.7,-141.8,-378.4,-243.5,-498.1,-1232.3,-623.8,-417.7,-183.9,-583.2,-9.0,-136.2,-516.3,-455.5,-2.1,-215.2,132.3,-276.0,0,0,3180,0,220,0,
1.7667,-222.6,-219.8,-404.1,-275.4,-403.5,-347.1,-140.6,-379.9,-244.4,-500.8,-1233.2,-628.6,-413.2,-178.5,-578.7,-23.4,-134.1,-510.6,-465.6,-2.4,-221.5,132.3,-273.3,0,0,3186,0,221,0,
1.7700,-230.7,-221.3,-402.9,-273.6,-403.8,-346.5,-139.7,-382.9,-243.8,-495.7,-1230.5,-634.0,-421.3,-189.9,-582.9,-33.0,-141.6,-512.1,-470.1,-2.4,-218.2,134.4,-272.1,0,0,3192,0,222,0,
1.7733,-225.6,-219.5,-400.0,-273.3,-400.2,-342.9,-138.5,-380.5,-243.8,-494.5,-1225.5,-641.8,-417.4,-189.9,-581.4,-22.8,-140.4,-511.5,-454.3,-2.1,-211.9,130.5,-269.1,0,0,3198,0,223,0,
1.7767,-228.0,-221.0,-402.1,-273.3,-402.0,-340.5,-136.4,-382.3,-244.1,-494.8,-1229.9,-640.9,-421.0,-191.1,-585.3,-6.6,-136.2,-511.5,-461.8,-2.7,-220.3,135.9,-272.4,0,0,3204,0,224,0,
1.7800,-232.2,-224.6,-402.7,-275.7,-403.2,-347.4,-138.2,-382.3,-250.1,-496.9,-1233.2,-639.7,-421.3,-193.8,-588.0,4.2,-133.2,-506.7,-457.0,-2.4,-213.7,130.5,-274.8,0,0,3210,0,225,0,
1.7833,-228.3,-221.9,-405.0,-273.9,-406.2,-345.9,-141.2,-382.6,-249.5,-498.1,-1230.5,-626.5,-415.9,-187.2,-582.9,-4.2,-133.5,-507.6,-458.2,-2.1,-217.3,128.7,-274.8,0,0,3216,0,226,0,
1.7867,-228.9,-224.0,-406.8,-277.2,-406.8,-351.6,-142.4,-385.3,-251.9,-498.4,-1237.1,-625.9,-415.0,-185.4,-578.7,-28.5,-128.4,-506.7,-459.1,-2.4,-230.5,131.4,-278.4,0,0,3222,0,227,0,
1.7900,-228.0,-220.7,-404.4,-272.7,-402.3,-350.1,-137.0,-384.7,-247.4,-494.8,-1228.7,-626.5,-415.6,-183.9,-580.2,-34.8,-126.6,-502.2,-460.0,-1.8,-227.2,130.2,-282.9,0,0,3228,0,228,0,
1.7933,-228.9,-222.2,-403.2,-271.5,-400.2,-348.3,-136.7,-381.7,-243.2,-503.5,-1226.4,-627.1,-417.4,-185.7,-585.9,-18.3,-130.5,-507.0,-460.6,-2.1,-224.5,128.7,-280.5,0,0,3234,0,229,0,
1.7967,-230.4,-223.4,-406.2,-272.1,-396.0,-349.5,-135.2,-381.7,-246.5,-499.9,-1234.1,-627.7,-423.4,-187.8,-580.8,-8.1,-126.6,-513.3,-464.2,-2.4,-215.8,131.4,-286.5,0,0,3240,0,230,0,
1.8000,-226.5,-219.5,-401.5,-270.6,-391.8,-345.6,-134.3,-376.3,-250.7,-496.0,-1230.2,-622.9,-418.3,-186.3,-581.7,5.4,-129.9,-514.2,-459.7,-2.4,-223.9,132.9,-282.3,0,0,3246,0,231,0,
1.8033,-225.3,-221.9,-400.9,-269.4,-390.9,-344.7,-134.3,-375.1,-252.5,-496.0,-1229.6,-622.6,-420.4,-188.1,-579.6,-9.6,-121.8,-514.8,-470.1,-2.4,-218.8,129.9,-290.7,0,0,3252,0,232,0,
1.8067,-230.1,-226.1,-407.7,-276.3,-399.6,-353.4,-137.9,-379.3,-251.3,-502.9,-1233.8,-623.8,-422.8,-188.7,-583.5,-29.1,-125.7,-522.6,-473.1,-2.1,-226.9,130.8,-293.7,0,0,3258,0,233,0,
1.8100,-231.6,-227.3,-407.1,-275.4,-400.5,-355.8,-141.2,-382.9,-259.7,-502.9,-1235.0,-628.6,-424.3,-188.4,-590.4,-37.2,-122.4,-519.9,-464.4,-2.1,-230.8,126.9,-291.0,0,0,3264,0,234,0,
1.8133,-216.3,-209.6,-385.0,-253.2,-381.3,-337.8,-120.8,-365.2,-230.9,-480.2,-1212.3,-603.4,-416.5,-176.1,-579.0,-27.9,-123.9,-495.1,-442.3,-1.8,-209.2,144.0,-273.9,0,0,3270,0,235,0,
1.8167,-224.4,-220.4,-396.1,-263.4,-387.3,-346.2,-133.7,-372.4,-243.8,-495.7,-1227.0,-617.8,-418.3,-178.5,-580.2,-12.9,-123.0,-507.6,-446.2,-2.4,-217.6,130.2,-286.2,0,0,3276,0,236,0,
1.8200,-222.6,-222.5,-397.0,-264.9,-388.5,-346.5,-133.7,-369.1,-252.8,-494.2,-1221.3,-625.3,-421.3,-180.0,-577.5,1.8,-127.2,-507.3,-443.5,-2.4,-220.6,132.9,-278.7,0,0,3282,0,237,0,
1.8233,-219.0,-218.6,-393.7,-260.7,-390.6,-350.1,-137.0,-372.1,-255.8,-499.0,-1226.1,-627.4,-414.1,-184.8,-582.3,-12.6,-123.3,-514.8,-449.8,-2.1,-215.5,127.8,-280.2,0,0,3288,0,238,0,
1.8267,-224.4,-217.4,-391.9,-259.8,-389.1,-348.3,-134.3,-367.6,-257.6,-493.6,-1224.6,-624.7,-421.0,-186.9,-589.5,-26.7,-122.4,-513.0,-449.5,-2.4,-224.5,126.9,-284.1,0,0,3294,0,239,0,
1.8300,-225.9,-218.0,-393.7,-263.4,-387.9,-351.0,-136.7,-370.3,-251.0,-492.7,-1228.4,-625.0,-416.2,-187.5,-588.3,-37.5,-117.9,-507.9,-457.6,-2.1,-224.5,125.7,-283.2,0,0,3300,0,240,0,
1.8333,-225.9,-218.3,-396.1,-261.0,-387.3,-346.2,-134.9,-367.0,-251.0,-491.2,-1221.0,-624.1,-416.8,-190.2,-586.2,-24.0,-116.7,-510.0,-452.8,-2.4,-222.4,130.2,-279.6,0,0,3306,0,241,0,
1.8367,-222.6,-214.4,-394.0,-256.2,-381.9,-343.8,-136.1,-366.1,-255.5,-489.7,-1222.2,-620.8,-416.5,-184.5,-590.4,-6.9,-120.6,-508.5,-445.9,-2.1,-223.3,129.3,-281.7,0,0,3312,0,242,0,
1.8400,-224.7,-215.0,-393.1,-259.5,-386.1,-344.4,-135.8,-367.3,-251.0,-495.1,-1229.9,-622.0,-421.6,-194.1,-594.0,-0.3,-114.0,-512.4,-456.7,-2.1,-222.7,124.5,-279.3,0,0,3318,0,243,0,
1.8433,-223.5,-218.6,-396.1,-261.9,-387.9,-345.3,-133.7,-366.4,-259.7,-497.5,-1233.2,-627.1,-424.3,-188.7,-586.8,-11.7,-121.2,-512.4,-465.9,-2.1,-226.6,131.7,-285.0,0,0,3324,0,244,0,
1.8467,-227.7,-219.8,-391.3,-263.4,-387.0,-349.5,-136.4,-367.6,-255.2,-492.7,-1228.2,-627.7,-421.3,-190.5,-591.3,-27.6,-114.0,-514.8,-459.7,-2.4,-217.9,126.3,-280.8,0,0,3330,0,245,0,
1.8500,-227.4,-220.4,-394.0,-262.5,-390.3,-351.6,-137.3,-368.2,-264.2,-494.2,-1233.8,-629.2,-420.1,-185.1,-585.3,-31.8,-117.3,-515.1,-461.8,-2.1,-231.7,130.8,-287.4,0,0,3336,0,246,0,
1.8533,-232.5,-219.2,-394.9,-265.8,-395.4,-354.0,-140.9,-370.3,-256.4,-499.3,-1235.3,-635.5,-420.4,-190.5,-585.6,-22.2,-116.4,-519.0,-470.4,-2.4,-235.6,126.6,-291.6,0,0,3342,0,247,0,
1.8567,-231.9,-220.7,-399.4,-266.7,-393.0,-352.8,-138.5,-370.6,-258.8,-503.5,-1233.5,-634.3,-419.5,-188.7,-587.1,-3.6,-118.8,-518.7,-465.0,-2.4,-240.1,129.6,-296.4,0,0,3348,0,248,0,
1.8600,-227.4,-215.3,-395.2,-258.9,-388.8,-346.8,-135.8,-363.7,-248.6,-496.6,-1225.2,-622.6,-422.2,-198.6,-589.2,-1.8,-114.9,-508.2,-452.8,-2.4,-229.0,136.2,-285.9,0,0,3354,0,249,0,
1.8633,-226.8,-218.3,-393.4,-257.4,-386.7,-344.7,-136.1,-363.1,-255.2,-498.4,-1225.2,-627.4,-425.2,-200.4,-594.3,-9.0,-114.9,-510.9,-454.3,-2.4,-222.7,139.5,-287.1,0,0,3360,0,250,0,
1.8667,-226.5,-217.1,-394.9,-260.1,-384.9,-343.8,-136.1,-364.3,-256.7,-498.1,-1224.9,-628.3,-419.2,-192.0,-589.2,-26.4,-110.4,-514.8,-458.8,-2.1,-214.6,135.0,-286.2,0,0,3366,0,251,0,
1.8700,-226.8,-224.6,-399.7,-264.3,-386.7,-348.0,-137.9,-371.5,-259.1,-497.5,-1224.3,-639.1,-421.0,-192.9,-588.0,-35.7,-106.2,-510.9,-461.2,-2.4,-223.9,130.2,-291.9,0,0,3372,0,252,0,
1.8733,-227.1,-221.3,-398.5,-261.0,-389.4,-345.0,-138.8,-370.9,-257.3,-503.2,-1227.0,-642.4,-415.9,-189.3,-585.0,-19.5,-114.3,-508.8,-461.2,-2.4,-223.3,132.0,-290.4,0,0,3378,0,253,0,
1.8767,-227.7,-225.2,-398.2,-261.6,-393.0,-346.2,-135.8,-376.0,-261.8,-508.3,-1234.7,-637.0,-422.2,-190.8,-583.8,-8.1,-111.9,-518.1,-465.9,-2.4,-231.7,139.5,-292.2,0,0,3384,0,254,0,
1.8800,-229.5,-224.0,-400.3,-266.1,-391.8,-351.3,-134.9,-377.5,-268.1,-505.3,-1231.1,-636.7,-422.8,-191.1,-589.8,-2.7,-112.8,-522.0,-460.3,-2.4,-227.8,139.2,-292.8,0,0,3390,0,255,0,
1.8833,-229.8,-221.9,-398.8,-265.5,-392.7,-349.8,-132.2,-375.1,-259.4,-497.8,-1227.3,-632.2,-424.6,-191.4,-594.0,-12.6,-112.5,-517.8,-461.8,-2.4,-229.6,137.4,-293.1,0,0,3396,0,0,0,
1.8867,-232.8,-227.0,-405.3,-271.8,-401.7,-356.4,-136.4,-378.7,-265.7,-508.3,-1235.6,-640.3,-427.3,-193.2,-595.5,-27.6,-110.1,-529.5,-475.8,-2.1,-231.4,133.2,-299.1,0,0,3402,0,1,0,
1.8900,-232.2,-226.7,-400.6,-271.2,-399.9,-353.1,-134.3,-376.3,-264.8,-507.1,-1237.7,-648.1,-436.9,-204.3,-604.8,-33.0,-104.4,-523.2,-470.7,-2.4,-232.0,136.8,-290.4,0,0,3408,0,2,0,
1.8933,-234.9,-229.4,-407.7,-276.6,-405.3,-356.7,-139.1,-380.8,-275.0,-517.3,-1246.4,-653.5,-427.0,-198.0,-601.8,-23.1,-104.4,-530.9,-472.2,-2.1,-239.2,130.2,-299.4,0,0,3414,0,3,0,
1.8967,-225.6,-222.8,-397.9,-269.4,-397.8,-346.5,-131.3,-372.4,-265.4,-506.8,-1244.6,-658.3,-418.9,-189.3,-591.0,-6.9,-101.7,-525.6,-469.5,-2.4,-232.9,140.1,-292.8,0,0,3420,0,4,0,
1.9000,-230.7,-222.5,-398.5,-265.8,-395.7,-345.0,-130.1,-373.0,-270.8,-509.2,-1244.9,-652.9,-423.4,-194.4,-594.0,0.6,-107.4,-529.8,-473.1,-2.4,-227.5,138.3,-286.8,0,0,3426,0,5,0,
1.9033,-228.0,-221.9,-395.5,-264.9,-394.2,-346.2,-129.2,-370.6,-266.9,-510.7,-1234.7,-643.9,-425.2,-195.3,-594.0,-11.4,-103.2,-525.9,-474.6,-2.7,-230.2,144.0,-289.8,0,0,3432,0,6,0,
1.9067,-223.5,-221.6,-398.5,-265.5,-394.5,-347.1,-129.2,-370.3,-265.1,-505.6,-1224.9,-639.1,-419.8,-189.0,-595.5,-25.5,-105.0,-523.5,-467.7,-2.4,-228.4,142.5,-294.0,0,0,3438,0,7,0,
1.9100,-225.9,-223.4,-402.7,-268.8,-399.0,-350.4,-133.4,-374.8,-260.3,-506.2,-1237.1,-636.1,-418.6,-184.8,-594.9,-36.0,-104.1,-519.6,-477.0,-2.1,-232.6,139.8,-297.3,0,0,3444,0,8,0,
1.9133,-226.5,-223.4,-400.0,-267.6,-396.3,-344.4,-131.3,-370.0,-259.4,-509.5,-1235.3,-634.6,-426.4,-197.7,-598.8,-26.4,-104.4,-516.3,-469.5,-1.8,-229.6,142.5,-295.5,0,0,3450,0,9,0,
1.9167,-222.6,-221.9,-402.7,-265.2,-391.8,-347.1,-133.4,-369.1,-261.5,-507.1,-1232.0,-638.2,-424.3,-189.9,-598.5,-9.9,-101.1,-531.2,-463.6,-2.4,-232.0,136.5,-301.5,0,0,3456,0,10,0,
1.9200,-220.8,-221.6,-400.3,-267.3,-392.7,-344.4,-131.0,-369.4,-263.0,-504.4,-1225.2,-638.5,-419.2,-186.9,-598.8,0.6,-107.4,-527.7,-456.4,-2.1,-225.1,139.5,-292.8,0,0,3462,0,11,0,
1.9233,-220.2,-221.0,-400.0,-270.3,-396.9,-351.3,-135.5,-370.9,-269.0,-507.4,-1239.8,-641.2,-416.8,-184.5,-599.7,-10.2,-102.3,-514.8,-468.9,-2.4,-228.1,141.6,-301.8,0,0,3468,0,12,0,
1.9267,-219.3,-218.3,-397.6,-268.8,-391.5,-343.5,-129.5,-368.5,-267.2,-505.6,-1232.9,-635.5,-415.3,-186.3,-598.8,-31.5,-104.1,-513.0,-470.4,-2.4,-226.3,149.4,-294.9,0,0,3474,0,13,0,
1.9300,-225.3,-219.5,-404.7,-269.7,-391.8,-343.5,-130.7,-373.0,-256.7,-508.9,-1239.2,-637.9,-416.2,-184.5,-596.7,-29.1,-97.2,-514.5,-477.3,-2.4,-227.2,137.7,-294.0,0,0,3480,0,14,0,
1.9333,-227.1,-223.1,-407.7,-275.7,-395.4,-343.8,-133.4,-374.2,-261.2,-512.5,-1242.8,-638.2,-417.1,-191.1,-598.5,-26.4,-99.3,-523.8,-475.5,-2.4,-234.1,133.2,-297.3,0,0,3486,0,15,0,
1.9367,-225.6,-223.7,-408.0,-274.2,-395.1,-350.1,-136.4,-376.9,-263.9,-512.8,-1254.8,-636.1,-414.7,-186.9,-600.6,-9.9,-100.2,-528.3,-479.1,-2.4,-231.7,133.2,-298.8,0,0,3492,0,16,0,
1.9400,-225.9,-225.5,-409.2,-277.2,-400.8,-351.0,-136.4,-377.8,-261.8,-510.4,-1238.9,-637.3,-418.9,-187.2,-599.4,-4.2,-107.7,-529.8,-473.1,-2.1,-228.4,143.7,-290.4,0,0,3498,0,17,0,
1.9433,-217.8,-222.5,-400.3,-270.9,-395.4,-348.3,-134.3,-373.9,-263.0,-502.9,-1229.0,-631.6,-415.9,-179.4,-594.0,-12.3,-106.2,-521.7,-467.7,-2.4,-229.0,144.6,-284.4,0,0,3504,0,18,0,
1.9467,-219.0,-222.8,-406.8,-278.4,-403.5,-352.2,-137.6,-377.5,-260.3,-506.8,-1228.4,-628.6,-409.6,-179.1,-597.6,-30.0,-104.7,-524.1,-463.3,-2.4,-228.7,144.6,-292.5,0,0,3510,0,19,0,
1.9500,-214.2,-214.7,-397.6,-269.1,-394.2,-346.2,-128.6,-370.6,-251.6,-499.9,-1223.7,-622.0,-408.5,-176.1,-589.2,-36.9,-105.0,-512.4,-455.5,-2.1,-223.9,155.1,-284.1,0,0,3516,0,20,0,
1.9533,-217.8,-216.8,-399.1,-272.4,-397.5,-342.9,-129.8,-370.9,-249.8,-501.4,-1228.7,-623.5,-403.1,-176.1,-588.6,-22.5,-104.1,-512.7,-459.1,-2.4,-217.6,149.4,-282.9,0,0,3522,0,21,0,
1.9567,-223.2,-219.8,-401.8,-275.1,-400.5,-350.1,-137.0,-372.7,-257.0,-506.2,-1236.8,-627.4,-408.5,-186.9,-597.6,-11.4,-103.8,-518.4,-468.6,-2.1,-219.4,134.7,-287.1,0,0,3528,0,22,0,
1.9600,-228.0,-223.4,-408.9,-276.6,-400.2,-349.2,-140.0,-377.2,-257.9,-511.9,-1238.6,-625.0,-406.7,-183.9,-595.2,-2.7,-102.3,-526.8,-464.7,-2.4,-218.2,138.0,-284.4,0,0,3534,0,23,0,
1.9633,-226.5,-223.4,-408.6,-276.9,-400.8,-354.0,-139.4,-379.0,-257.0,-510.7,-1243.1,-624.4,-414.4,-186.0,-600.0,-11.4,-98.7,-520.8,-471.9,-2.4,-227.2,133.5,-291.3,0,0,3540,0,24,0,
1.9667,-225.3,-220.1,-404.1,-274.5,-397.2,-349.5,-135.8,-374.2,-256.4,-505.0,-1237.7,-624.4,-407.6,-178.2,-596.4,-26.1,-104.4,-519.9,-466.8,-2.4,-216.7,140.1,-288.6,0,0,3546,0,25,0,
1.9700,-228.3,-217.7,-404.4,-276.6,-401.1,-350.7,-136.7,-375.1,-254.3,-505.6,-1241.0,-626.5,-411.7,-183.9,-597.3,-29.7,-98.7,-519.3,-482.7,-2.4,-223.9,141.9,-296.1,0,0,3552,0,26,0,
1.9733,-228.3,-218.9,-401.2,-274.5,-397.8,-347.7,-135.5,-374.8,-249.5,-506.5,-1236.8,-627.1,-415.9,-188.7,-595.8,-26.1,-98.4,-518.4,-477.9,-2.1,-222.1,145.8,-297.9,0,0,3558,0,27,0,
1.9767,-229.2,-219.5,-402.9,-275.4,-399.0,-348.3,-138.5,-370.3,-256.7,-505.6,-1237.1,-626.5,-418.6,-188.1,-590.7,-15.6,-91.5,-519.0,-473.4,-2.1,-227.2,137.4,-299.4,0,0,3564,0,28,0,
1.9800,-225.6,-215.6,-402.7,-275.7,-400.8,-350.1,-134.6,-371.2,-259.1,-507.7,-1240.4,-628.0,-416.5,-191.1,-593.4,-4.2,-93.9,-524.7,-471.6,-2.1,-222.1,141.3,-292.2,0,0,3570,0,29,0,
1.9833,-227.1,-216.5,-402.9,-274.2,-400.8,-350.7,-135.2,-367.9,-252.5,-506.5,-1237.1,-627.4,-413.8,-187.5,-594.0,-18.3,-81.6,-523.2,-471.6,-2.4,-224.2,139.5,-295.8,0,0,3576,0,30,0,
1.9867,-226.2,-216.8,-401.8,-272.1,-400.2,-349.2,-135.2,-368.8,-252.8,-501.4,-1238.9,-616.6,-405.8,-182.4,-589.8,-28.5,-83.7,-513.3,-469.5,-2.1,-223.3,144.6,-293.4,0,0,3582,0,31,0,
1.9900,-228.9,-217.4,-397.3,-264.6,-391.8,-345.6,-129.2,-364.9,-251.0,-495.4,-1239.5,-618.4,-408.5,-183.0,-588.9,-36.3,-79.2,-514.8,-465.0,-2.4,-215.2,153.0,-284.1,0,0,3588,0,32,0,
1.9933,-227.4,-213.5,-393.7,-259.8,-389.1,-339.9,-128.6,-361.9,-249.8,-496.6,-1226.1,-618.7,-404.3,-177.6,-586.8,-21.0,-86.4,-511.8,-458.5,-2.4,-211.0,154.2,-279.6,0,0,3594,0,33,0,
1.9967,-227.4,-212.6,-389.8,-258.0,-385.2,-336.0,-126.5,-358.6,-248.9,-493.6,-1225.2,-624.7,-411.7,-186.0,-588.6,-16.8,-80.4,-511.5,-455.5,-2.4,-217.6,155.7,-280.2,0,0,3600,0,34,0,
2.0000,-228.6,-214.1,-390.1,-261.9,-388.2,-337.8,-128.9,-362.8,-241.1,-493.9,-1226.7,-623.5,-404.6,-182.7,-590.1,-6.9,-83.7,-507.3,-461.5,-2.1,-201.7,155.7,-277.8,0,0,3606,0,35,0,
2.0033,-230.1,-216.5,-394.6,-267.0,-398.4,-341.1,-129.5,-367.6,-245.3,-496.0,-1227.3,-628.0,-404.6,-180.3,-594.3,-12.6,-82.8,-506.7,-460.9,-2.1,-208.9,150.6,-277.5,0,0,3612,0,36,0,
2.0067,-230.4,-216.5,-402.1,-273.0,-400.8,-344.4,-129.5,-368.8,-248.9,-501.7,-1229.0,-628.6,-407.6,-180.0,-589.8,-27.0,-89.7,-515.4,-464.4,-2.1,-212.5,153.9,-279.9,0,0,3618,0,37,0,
2.0100,-230.4,-219.2,-404.4,-274.5,-402.9,-346.8,-130.7,-369.4,-250.1,-502.9,-1232.3,-633.1,-411.7,-186.0,-593.4,-35.4,-88.2,-522.3,-466.8,-2.1,-216.7,152.7,-282.9,0,0,3624,0,38,0,
2.0133,-229.5,-220.7,-411.9,-278.1,-403.5,-350.1,-133.7,-370.6,-249.2,-508.9,-1236.8,-637.0,-415.0,-191.4,-588.6,-24.6,-92.4,-529.8,-466.2,-2.4,-218.2,147.9,-277.2,0,0,3630,0,39,0,
2.0167,-227.4,-216.8,-406.8,-280.5,-407.1,-349.5,-133.1,-373.0,-249.2,-511.9,-1244.9,-631.3,-413.8,-181.2,-592.5,-12.3,-108.3,-529.8,-476.4,-2.4,-219.7,150.9,-277.2,0,0,3636,0,40,0,
2.0200,-226.5,-217.4,-407.7,-277.5,-402.3,-348.9,-135.5,-374.5,-251.0,-511.6,-1237.1,-634.6,-412.9,-187.8,-591.9,-1.5,-106.2,-522.3,-458.5,-2.1,-213.7,150.3,-290.1,0,0,3642,0,41,0,
2.0233,-229.2,-216.8,-403.8,-279.9,-405.0,-347.1,-135.8,-372.4,-250.4,-506.5,-1239.8,-631.9,-415.9,-196.2,-593.4,-10.8,-104.1,-517.2,-460.9,-2.4,-221.2,141.3,-286.2,0,0,3648,0,42,0,
2.0267,-230.4,-221.0,-407.4,-281.4,-406.2,-352.8,-137.6,-373.6,-251.9,-508.3,-1237.1,-632.5,-407.6,-191.7,-591.0,-27.0,-113.1,-520.8,-463.6,-2.4,-228.4,137.4,-285.9,0,0,3654,0,43,0,
2.0300,-228.0,-216.2,-398.2,-274.8,-404.1,-352.5,-134.6,-372.4,-251.9,-502.3,-1233.5,-628.0,-405.5,-192.0,-593.1,-33.9,-114.6,-516.3,-468.3,-2.4,-218.2,138.3,-279.9,0,0,3660,0,44,0,
2.0333,-230.4,-221.3,-399.1,-278.1,-406.2,-356.1,-137.0,-371.2,-250.4,-508.9,-1238.6,-636.7,-406.4,-188.4,-591.3,-25.8,-111.9,-522.9,-473.4,-2.4,-220.0,134.7,-280.2,0,0,3666,0,45,0,
2.0367,-232.8,-221.6,-400.6,-280.2,-408.6,-361.2,-140.6,-375.4,-256.1,-505.0,-1244.6,-641.8,-410.5,-190.8,-596.4,-12.0,-107.4,-522.9,-477.9,-2.4,-226.9,126.9,-284.4,0,0,3672,0,46,0,
2.0400,-237.0,-220.7,-399.4,-281.4,-407.1,-360.6,-138.8,-377.8,-245.9,-503.2,-1235.6,-634.3,-413.5,-190.5,-597.3,-0.3,-109.5,-524.7,-470.1,-2.1,-218.8,132.3,-281.4,0,0,3678,0,47,0,
2.0433,-232.5,-218.9,-396.7,-278.7,-407.1,-357.3,-137.3,-375.7,-252.8,-502.9,-1237.7,-631.3,-409.6,-188.4,-596.4,-6.6,-102.6,-524.1,-474.9,-1.8,-230.5,126.9,-284.4,0,0,3684,0,48,0,
2.0467,-233.7,-216.2,-400.0,-277.2,-408.6,-360.9,-139.1,-375.1,-248.0,-506.5,-1238.3,-630.7,-406.1,-187.2,-597.6,-32.7,-103.5,-519.6,-471.9,-2.1,-223.6,118.5,-285.3,0,0,3690,0,49,0,
2.0500,-235.2,-219.8,-405.6,-280.5,-410.4,-363.6,-139.1,-379.0,-255.2,-508.6,-1244.6,-647.5,-409.9,-193.8,-604.5,-32.7,-98.1,-524.1,-477.6,-2.4,-228.1,116.7,-288.6,0,0,3696,0,50,0,
2.0533,-234.0,-216.2,-402.4,-279.9,-406.8,-364.5,-137.6,-376.9,-250.4,-506.2,-1244.9,-646.9,-413.2,-196.2,-603.0,-21.3,-95.4,-520.2,-484.2,-2.1,-222.7,118.8,-282.6,0,0,3702,0,51,0,
2.0567,-233.1,-216.5,-404.4,-278.4,-405.6,-362.7,-138.5,-375.7,-253.4,-509.8,-1251.5,-639.1,-415.3,-194.4,-605.7,-6.0,-89.1,-526.5,-480.3,-2.4,-223.6,116.4,-285.9,0,0,3708,0,52,0,
2.0600,-231.0,-218.9,-409.5,-280.8,-411.0,-363.6,-140.3,-376.9,-256.7,-513.4,-1247.0,-637.0,-415.6,-197.4,-607.5,3.0,-99.6,-529.8,-476.1,-2.1,-221.5,109.2,-291.0,0,0,3714,0,53,0,
2.0633,-230.4,-219.8,-407.1,-280.8,-410.7,-363.9,-138.8,-373.6,-256.1,-508.3,-1244.6,-636.7,-415.6,-196.8,-603.6,-9.6,-95.4,-531.2,-468.9,-2.1,-217.9,115.5,-295.5,0,0,3720,0,54,0,
2.0667,-229.8,-217.7,-402.9,-282.6,-412.8,-364.2,-140.0,-376.6,-254.3,-508.0,-1240.7,-632.5,-410.5,-192.9,-598.8,-28.8,-93.3,-527.7,-469.2,-2.1,-228.7,111.3,-306.9,0,0,3726,0,55,0,
2.0700,-234.0,-215.3,-398.5,-281.4,-414.6,-363.3,-134.6,-373.9,-250.4,-505.6,-1238.0,-630.4,-412.0,-198.6,-605.1,-30.0,-87.9,-523.8,-471.0,-2.1,-239.2,113.4,-300.9,0,0,3732,0,56,0,
2.0733,-233.7,-216.2,-400.6,-281.1,-414.0,-361.5,-135.2,-373.6,-252.2,-505.6,-1237.1,-627.4,-414.4,-198.6,-605.1,-20.1,-93.9,-524.1,-467.1,-2.1,-228.4,111.0,-304.8,0,0,3738,0,57,0,
2.0767,-227.1,-211.1,-396.7,-278.1,-408.0,-354.9,-128.3,-368.2,-241.7,-503.5,-1235.9,-619.6,-408.2,-194.7,-597.6,-13.5,-93.6,-520.5,-464.2,-2.1,-219.7,120.0,-296.4,0,0,3744,0,58,0,
2.0800,-229.5,-214.4,-399.4,-276.9,-409.5,-351.9,-131.3,-364.6,-246.5,-499.3,-1237.1,-621.4,-413.5,-196.8,-597.3,-2.4,-93.6,-514.8,-467.1,-2.7,-214.3,123.9,-286.8,0,0,3750,0,59,0,
2.0833,-219.3,-203.3,-393.7,-267.9,-398.1,-342.6,-117.5,-355.6,-239.0,-489.4,-1234.7,-611.5,-400.1,-182.7,-585.3,-3.0,-97.2,-508.2,-460.9,-2.4,-209.2,135.3,-273.6,0,0,3756,0,60,0,
2.0867,-227.4,-216.8,-402.9,-279.9,-410.1,-357.6,-131.3,-368.8,-251.0,-502.9,-1238.9,-621.7,-410.5,-195.3,-599.1,-21.0,-94.8,-522.3,-472.5,-2.4,-224.8,121.5,-285.0,0,0,3762,0,61,0,
2.0900,-233.1,-215.6,-410.1,-286.2,-417.0,-362.7,-136.1,-375.7,-253.1,-512.5,-1249.4,-622.9,-409.9,-195.6,-604.2,-34.5,-94.8,-523.5,-485.7,-2.4,-236.2,121.5,-291.0,0,0,3768,0,62,0,
2.0933,-237.3,-219.5,-409.8,-284.4,-419.1,-362.4,-136.1,-374.5,-251.0,-512.8,-1250.0,-621.7,-411.7,-196.5,-599.1,-23.1,-90.3,-526.8,-477.3,-2.7,-228.7,123.0,-291.9,0,0,3774,0,63,0,
2.0967,-238.8,-215.3,-408.0,-275.7,-410.7,-363.0,-133.4,-371.2,-252.5,-510.1,-1250.0,-627.7,-410.2,-195.9,-597.6,-6.9,-93.9,-522.6,-484.2,-2.1,-230.2,122.1,-294.9,0,0,3780,0,64,0,
2.1000,-237.9,-214.4,-405.0,-279.6,-409.2,-363.9,-133.1,-372.7,-253.1,-509.5,-1241.9,-629.2,-410.5,-196.2,-597.0,-3.0,-94.5,-524.7,-489.2,-2.4,-237.4,118.2,-296.1,0,0,3786,0,65,0,
2.1033,-236.1,-217.4,-405.9,-277.5,-410.4,-366.9,-136.7,-372.1,-257.0,-505.6,-1241.3,-624.4,-416.2,-200.1,-602.7,-6.3,-93.9,-522.6,-474.9,-2.1,-231.1,119.1,-297.0,0,0,3792,0,66,0,
2.1067,-237.9,-218.3,-408.3,-281.1,-414.3,-371.7,-138.5,-375.7,-255.8,-510.1,-1248.2,-622.0,-413.2,-197.1,-603.6,-18.0,-94.5,-523.8,-477.0,-2.7,-244.0,116.1,-304.8,0,0,3798,0,67,0,
2.1100,-233.1,-216.5,-406.8,-278.4,-408.3,-367.5,-139.4,-375.4,-263.6,-511.0,-1254.8,-623.2,-413.8,-192.9,-603.0,-29.7,-92.1,-525.0,-475.5,-2.4,-240.4,110.7,-298.8,0,0,3804,0,68,0,
2.1133,-237.9,-213.8,-405.0,-276.6,-409.5,-365.7,-141.2,-376.3,-251.0,-509.8,-1246.1,-619.0,-424.3,-201.0,-610.2,-22.8,-94.8,-518.4,-472.2,-2.4,-224.2,105.9,-299.1,0,0,3810,0,69,0,
2.1167,-237.0,-209.9,-398.2,-269.7,-402.3,-358.5,-136.7,-370.0,-250.4,-502.9,-1234.7,-615.7,-413.8,-198.0,-609.9,-5.4,-84.6,-509.1,-468.9,-2.1,-222.7,112.5,-291.6,0,0,3816,0,70,0,
2.1200,-240.9,-214.7,-402.1,-275.4,-405.3,-366.0,-137.3,-374.5,-258.8,-510.4,-1242.2,-622.6,-413.5,-202.5,-612.6,2.7,-32.4,-520.2,-470.7,-2.4,-238.3,113.7,-296.1,0,0,3822,0,71,0,
2.1233,-231.6,-213.5,-403.5,-276.3,-408.9,-364.8,-135.5,-370.0,-260.0,-510.7,-1253.6,-626.8,-404.0,-191.7,-606.3,-6.0,38.4,-524.1,-479.7,-2.1,-233.2,118.2,-304.5,0,0,3828,0,72,0,
2.1267,-237.3,-215.9,-398.5,-273.0,-405.6,-360.6,-133.7,-369.1,-258.2,-500.2,-1238.6,-631.6,-412.6,-202.8,-610.8,-16.8,93.0,-514.2,-470.4,-2.1,-239.2,108.3,-301.5,0,0,3834,0,73,0,
2.1300,-240.3,-217.1,-402.9,-277.5,-407.1,-360.9,-134.6,-373.3,-265.1,-504.7,-1241.6,-628.3,-411.4,-204.6,-609.9,-28.2,28.8,-516.6,-476.1,-2.4,-232.9,108.0,-309.9,0,0,3840,0,74,0,
2.1333,-239.7,-219.8,-406.5,-278.1,-407.4,-361.2,-135.5,-367.9,-253.7,-511.9,-1246.7,-632.5,-413.8,-204.3,-609.6,-12.9,-144.3,-522.0,-477.6,-2.4,-234.1,104.1,-313.5,0,0,3846,0,75,0,
2.1367,-233.1,-210.5,-402.4,-271.2,-400.8,-355.5,-130.7,-364.0,-243.8,-509.2,-1244.6,-620.2,-405.5,-194.7,-615.6,0.3,-378.0,-519.6,-478.2,-2.1,-236.8,109.8,-304.8,0,0,3852,0,76,0,
2.1400,-227.7,-208.7,-396.7,-268.2,-393.6,-349.8,-130.4,-363.1,-245.9,-503.8,-1237.1,-624.4,-404.3,-195.6,-609.9,8.7,-644.7,-517.2,-467.7,-2.1,-234.7,113.4,-309.0,0,0,3858,0,77,0,
2.1433,-231.9,-211.7,-398.5,-274.2,-402.3,-358.5,-134.0,-364.3,-246.5,-510.7,-1247.6,-624.7,-401.0,-185.7,-605.1,-6.3,-894.6,-524.1,-482.4,-2.4,-240.4,107.7,-317.7,0,0,3864,0,78,0,
2.1467,-234.3,-218.3,-403.8,-276.6,-405.3,-359.1,-136.4,-371.2,-251.0,-512.2,-1249.4,-630.4,-407.0,-189.6,-601.5,-14.7,-1048.2,-528.0,-477.9,-2.1,-251.8,114.0,-316.5,0,0,3870,0,79,0,
2.1500,-235.8,-218.3,-399.4,-275.7,-406.8,-361.5,-136.1,-370.0,-248.0,-512.8,-1249.7,-625.9,-405.2,-186.0,-601.5,-26.1,-1066.8,-525.9,-479.1,-2.1,-253.0,112.2,-316.5,0,0,3876,0,80,0,
2.1533,-226.2,-216.2,-402.7,-276.6,-404.7,-359.4,-130.7,-371.5,-252.2,-511.0,-1248.8,-624.7,-401.0,-186.0,-600.9,-10.5,-958.2,-521.1,-479.4,-2.4,-247.9,112.2,-308.7,0,0,3882,0,81,0,
2.1567,-234.0,-223.1,-409.8,-282.6,-411.0,-366.6,-136.4,-377.5,-260.0,-517.9,-1260.7,-629.5,-407.9,-190.2,-601.5,-0.6,-683.7,-527.1,-486.6,-2.4,-248.2,104.1,-312.3,0,0,3888,0,82,0,
2.1600,-230.7,-218.0,-404.1,-274.8,-401.1,-360.3,-130.4,-369.4,-257.9,-511.6,-1248.5,-626.2,-410.2,-195.6,-601.5,7.2,-502.2,-520.8,-474.9,-2.4,-242.2,116.1,-307.2,0,0,3894,0,83,0,
2.1633,-231.3,-211.7,-394.0,-266.7,-398.4,-352.5,-120.8,-363.7,-258.2,-509.2,-1247.9,-618.4,-408.8,-191.4,-604.2,-3.0,-308.4,-518.1,-475.8,-2.4,-241.9,123.6,-306.0,0,0,3900,0,84,0,
2.1667,-233.1,-214.4,-396.1,-267.6,-399.3,-354.6,-122.0,-361.6,-257.6,-515.8,-1264.3,-616.9,-418.3,-199.2,-605.7,-19.2,-269.7,-524.7,-488.3,-2.1,-235.0,124.2,-301.2,0,0,3906,0,85,0,
2.1700,-227.7,-213.2,-391.9,-262.8,-391.8,-350.4,-123.5,-362.2,-248.3,-496.3,-1242.5,-613.6,-410.2,-189.9,-599.7,-21.9,-282.9,-507.6,-471.0,-2.4,-227.8,120.0,-298.2,0,0,3912,0,86,0,
2.1733,-232.8,-218.9,-400.3,-267.6,-394.8,-357.0,-130.1,-370.0,-254.6,-494.5,-1227.9,-619.3,-411.1,-192.9,-606.0,-13.2,-267.3,-510.0,-458.8,-2.1,-226.0,110.4,-300.3,0,0,3918,0,87,0,
2.1767,-231.3,-218.0,-391.3,-264.0,-390.3,-354.0,-126.2,-370.0,-248.0,-492.7,-1216.5,-619.6,-415.6,-190.8,-602.4,2.7,-214.2,-509.4,-447.7,-1.8,-220.6,121.2,-295.5,0,0,3924,0,88,0,
2.1800,-226.2,-219.5,-396.4,-263.4,-393.0,-353.7,-123.2,-367.9,-258.2,-493.0,-1225.8,-621.7,-409.6,-179.7,-599.7,13.2,-170.7,-510.3,-450.1,-2.4,-221.5,124.8,-292.2,0,0,3930,0,89,0,
2.1833,-228.9,-217.1,-397.9,-262.2,-390.3,-348.9,-124.7,-368.8,-260.6,-506.2,-1231.1,-625.6,-415.6,-189.3,-603.6,0.0,-149.7,-526.2,-453.4,-2.4,-228.7,124.8,-294.9,0,0,3936,0,90,0,
2.1867,-228.9,-220.4,-400.0,-265.2,-387.0,-348.3,-125.3,-368.5,-263.0,-501.7,-1227.6,-627.1,-415.9,-195.6,-608.4,-12.3,-133.2,-526.2,-454.3,-2.7,-215.5,126.3,-285.9,0,0,3942,0,91,0,
2.1900,-234.9,-219.8,-402.4,-267.0,-387.6,-348.9,-132.2,-372.1,-260.6,-498.7,-1227.0,-620.5,-420.7,-198.9,-612.6,-21.6,-124.5,-524.1,-458.5,-2.4,-226.3,116.7,-284.7,0,0,3948,0,92,0,
2.1933,-231.9,-219.8,-402.9,-269.7,-389.7,-347.7,-131.0,-372.1,-259.1,-504.4,-1223.1,-623.2,-417.1,-195.9,-610.5,-11.7,-121.5,-524.7,-456.4,-1.8,-223.3,116.7,-288.9,0,0,3954,0,93,0,
2.1967,-231.3,-216.2,-400.3,-266.1,-387.3,-346.2,-131.0,-366.4,-261.2,-502.9,-1227.9,-623.2,-415.9,-191.7,-603.0,4.2,-108.6,-519.6,-461.5,-2.7,-225.4,114.6,-285.0,0,0,3960,0,94,0,
2.2000,-226.5,-212.9,-397.0,-266.1,-387.6,-347.4,-131.3,-367.9,-263.0,-499.3,-1222.2,-635.2,-413.5,-188.1,-604.5,14.7,-102.3,-514.8,-454.6,-2.4,-217.3,111.9,-284.1,0,0,3966,0,95,0,
2.2033,-227.4,-211.7,-397.6,-269.1,-390.6,-346.2,-135.5,-372.4,-263.9,-495.1,-1227.9,-625.0,-411.4,-189.0,-605.7,3.0,-95.7,-516.0,-459.1,-2.7,-228.7,106.2,-285.3,0,0,3972,0,96,0,
