Time,P3,C3,F3,Fz,F4,C4,P4,Cz,A1,Fp1,Fp2,T3,T5,O1,O2,X3:EMGLE,X2:ECG,F7,F8,X1:EMGRI,A2,T6,T4,Pz,Trigger,Time_Offset,ADC_Status,ADC_Sequence,Event,Comments 
0.0000,-126.6,-13.2,-143.4,-197.1,-301.6,-256.5,-193.3,-130.7,-96.6,-347.5,-376.1,-503.2,816.6,-100.6,-342.6,-130.2,-223.5,-191.6,-258.7,-2.7,-38.7,42.3,-105.5,0,0,6,0,134,0,
0.0033,-125.7,-5.1,-134.7,-186.3,-293.2,-253.2,-189.1,-126.5,-83.1,-330.7,-360.6,-503.2,826.2,-103.6,-342.3,-126.9,-222.3,-174.9,-246.1,-2.1,-18.3,53.4,-95.0,0,0,12,0,135,0,
0.0067,-122.4,-3.0,-130.5,-179.7,-285.1,-243.3,-183.8,-122.9,-80.4,-313.6,-338.1,-496.0,833.4,-92.9,-334.2,-130.8,-224.4,-163.5,-225.2,-2.7,-12.6,53.1,-90.5,0,0,18,0,136,0,
0.0100,-126.0,-8.1,-135.3,-184.8,-286.9,-248.7,-188.6,-124.7,-89.7,-326.5,-351.3,-496.0,822.3,-102.4,-345.9,-131.7,-224.4,-173.1,-234.2,-2.4,-19.8,43.2,-94.4,0,0,24,0,137,0,
0.0133,-123.9,-5.1,-138.9,-184.8,-286.6,-248.4,-187.7,-124.1,-84.3,-331.0,-352.5,-506.8,824.1,-96.2,-344.7,-132.3,-223.2,-183.0,-230.0,-2.4,-12.0,48.6,-92.9,0,0,30,0,138,0,
0.0167,-123.6,-2.7,-133.8,-177.9,-278.8,-243.9,-190.3,-122.9,-86.1,-313.3,-335.4,-505.0,822.6,-100.9,-342.3,-130.2,-219.0,-169.5,-216.8,-2.4,-9.6,39.9,-88.1,0,0,36,0,139,0,
0.0200,-126.9,-6.6,-138.9,-180.9,-283.9,-248.1,-192.4,-128.9,-97.2,-320.5,-336.9,-496.3,820.8,-101.8,-334.8,-129.0,-222.0,-176.1,-218.6,-2.4,-15.0,50.1,-89.6,0,0,42,0,140,0,
0.0233,-128.7,-5.1,-136.5,-176.7,-280.0,-246.0,-196.0,-127.1,-87.0,-316.0,-334.5,-490.6,825.6,-97.7,-348.0,-128.1,-220.5,-177.0,-213.6,-2.1,-19.5,41.4,-86.6,0,0,48,0,141,0,
0.0267,-124.8,0.6,-131.1,-175.2,-278.2,-240.6,-187.7,-125.9,-81.6,-307.6,-328.0,-490.3,828.3,-86.9,-336.3,-126.9,-222.0,-164.4,-205.2,-2.1,-1.5,47.1,-79.4,0,0,54,0,142,0,
0.0300,-125.7,3.6,-130.5,-172.8,-276.7,-229.2,-183.8,-120.8,-74.4,-312.1,-329.8,-486.4,830.4,-97.1,-340.8,-132.9,-222.3,-175.5,-204.6,-2.7,-5.4,51.9,-74.6,0,0,60,0,143,0,
0.0333,-125.1,4.2,-129.0,-174.0,-274.3,-232.8,-188.9,-121.4,-85.5,-314.8,-332.2,-485.2,816.3,-100.1,-335.4,-128.4,-224.1,-169.2,-204.9,-2.4,-6.0,57.9,-77.6,0,0,66,0,144,0,
0.0367,-125.1,4.8,-127.8,-171.9,-272.8,-236.4,-189.4,-124.1,-69.9,-306.7,-328.3,-476.8,820.5,-96.5,-344.1,-127.5,-220.8,-165.0,-203.4,-2.1,3.0,57.9,-77.0,0,0,72,0,145,0,
0.0400,-119.1,2.1,-128.1,-172.2,-273.7,-227.1,-187.7,-120.8,-75.6,-308.2,-322.6,-479.8,828.9,-90.8,-339.6,-129.0,-222.0,-165.3,-195.9,-2.7,9.6,59.7,-72.5,0,0,78,0,146,0,
0.0433,-125.1,-5.4,-131.7,-175.8,-275.5,-231.6,-187.1,-124.1,-75.0,-307.3,-323.8,-487.3,828.9,-93.2,-332.1,-126.9,-221.1,-176.7,-197.1,-2.4,0.0,65.7,-72.2,0,0,84,0,147,0,
0.0467,-122.7,-3.0,-129.3,-177.0,-277.0,-232.2,-186.2,-124.1,-72.0,-311.2,-323.5,-481.0,828.0,-94.7,-331.2,-132.0,-220.5,-169.5,-196.5,-2.4,10.2,68.7,-72.5,0,0,90,0,148,0,
0.0500,-126.9,-5.1,-132.6,-180.6,-275.8,-232.8,-188.9,-126.5,-69.3,-313.0,-329.8,-487.9,822.0,-89.0,-325.8,-131.7,-224.4,-172.2,-200.1,-2.1,9.3,69.0,-76.7,0,0,96,0,149,0,
0.0533,-117.6,5.4,-124.2,-173.1,-270.1,-224.7,-184.7,-119.3,-75.6,-303.4,-320.8,-478.0,826.8,-95.9,-327.9,-126.9,-221.1,-162.9,-192.9,-2.4,2.1,67.5,-70.4,0,0,102,0,150,0,
0.0567,-123.3,-2.1,-132.6,-180.0,-277.6,-235.8,-189.7,-128.0,-72.9,-312.7,-327.4,-493.6,821.1,-94.7,-339.0,-124.5,-221.4,-173.1,-204.3,-2.4,5.1,62.4,-85.4,0,0,108,0,151,0,
0.0600,-120.9,0.3,-134.4,-179.4,-280.0,-234.6,-186.8,-130.4,-89.4,-316.6,-325.6,-487.0,826.5,-85.1,-338.4,-122.1,-218.7,-172.8,-198.0,-2.4,3.0,70.5,-82.7,0,0,114,0,152,0,
0.0633,-123.6,-5.7,-136.2,-180.3,-280.9,-231.0,-186.2,-126.5,-77.7,-313.6,-323.8,-478.3,816.0,-93.5,-337.8,-126.0,-222.3,-174.3,-198.9,-2.1,-1.2,65.7,-85.1,0,0,120,0,153,0,
0.0667,-127.5,-8.7,-142.5,-185.7,-280.3,-234.6,-190.3,-128.9,-81.3,-324.7,-333.3,-477.7,822.6,-91.1,-337.5,-140.4,-224.1,-185.4,-204.0,-1.8,-0.6,60.3,-88.1,0,0,126,0,154,0,
0.0700,-126.9,-3.6,-140.7,-182.7,-277.0,-234.3,-190.3,-125.0,-78.3,-319.6,-331.6,-480.4,820.5,-92.6,-341.7,-122.1,-225.0,-177.3,-203.7,-2.1,2.1,54.0,-89.6,0,0,132,0,155,0,
0.0733,-124.5,0.0,-134.1,-177.9,-269.8,-226.2,-182.6,-119.9,-80.7,-312.1,-326.5,-484.3,816.6,-103.6,-348.9,-138.6,-220.2,-171.6,-200.1,-2.4,2.7,67.5,-79.1,0,0,138,0,156,0,
0.0767,-123.6,2.4,-134.1,-178.2,-275.2,-232.5,-188.6,-120.8,-77.1,-314.2,-330.1,-487.6,816.6,-97.7,-343.5,-133.2,-220.2,-173.4,-206.1,-2.4,-4.2,52.8,-86.3,0,0,144,0,157,0,
0.0800,-127.2,-3.0,-139.8,-179.4,-276.1,-232.5,-188.9,-123.5,-88.2,-320.5,-329.2,-502.6,814.5,-94.1,-343.2,-132.6,-220.2,-185.1,-203.1,-2.4,-4.5,47.7,-82.4,0,0,150,0,158,0,
0.0833,-124.8,2.7,-132.6,-178.5,-275.5,-231.0,-185.3,-122.3,-86.4,-315.1,-332.4,-488.5,807.3,-98.0,-337.5,-126.6,-216.3,-173.4,-208.5,-1.8,0.6,50.1,-82.1,0,0,156,0,159,0,
0.0867,-129.0,-11.1,-144.0,-186.3,-282.4,-235.2,-190.0,-129.2,-80.4,-323.2,-338.7,-500.8,816.3,-92.0,-340.5,-129.6,-220.2,-182.7,-210.0,-2.1,-7.8,41.1,-85.7,0,0,162,0,160,0,
0.0900,-122.7,-5.1,-143.7,-186.0,-285.4,-235.5,-194.2,-124.1,-80.1,-325.0,-339.3,-483.7,825.6,-95.0,-339.6,-133.2,-219.3,-183.0,-206.7,-2.1,-4.8,46.8,-88.1,0,0,168,0,161,0,
0.0933,-127.5,-8.7,-148.2,-190.2,-290.2,-243.3,-197.5,-128.6,-92.1,-327.7,-344.4,-491.8,816.0,-102.4,-344.1,-129.0,-219.3,-186.5,-218.0,-2.4,-21.0,39.6,-95.0,0,0,174,0,162,0,
0.0967,-126.0,-5.4,-144.0,-187.8,-286.9,-242.7,-200.5,-127.4,-93.6,-325.6,-342.0,-489.1,818.4,-95.9,-348.0,-130.8,-217.8,-184.8,-212.7,-2.1,-13.5,37.2,-95.6,0,0,180,0,163,0,
0.1000,-130.2,-9.9,-146.4,-191.7,-289.6,-242.4,-202.6,-130.4,-99.0,-328.6,-345.0,-498.4,816.0,-97.7,-353.1,-123.3,-220.5,-187.7,-213.3,-2.4,-10.5,42.3,-88.7,0,0,186,0,164,0,
0.1033,-130.5,-6.6,-143.1,-189.3,-289.0,-244.8,-199.9,-131.3,-96.0,-326.8,-342.0,-495.4,814.5,-95.6,-347.4,-131.1,-219.3,-185.1,-210.3,-2.1,-14.7,39.6,-97.4,0,0,192,0,165,0,
0.1067,-132.9,-10.2,-147.6,-191.1,-289.3,-249.9,-199.9,-132.8,-99.3,-330.1,-343.2,-497.2,810.9,-102.1,-340.2,-121.5,-218.4,-191.6,-215.3,-2.1,-25.2,38.1,-98.6,0,0,198,0,166,0,
0.1100,-129.9,-7.2,-142.5,-186.9,-287.5,-246.6,-196.9,-125.6,-97.2,-327.1,-344.4,-508.9,815.4,-97.1,-337.5,-129.6,-218.1,-186.8,-215.3,-2.4,-10.5,41.4,-98.6,0,0,204,0,167,0,
0.1133,-129.0,-5.4,-143.4,-186.6,-286.3,-243.6,-197.8,-125.0,-94.8,-324.1,-341.7,-509.8,816.0,-100.6,-340.5,-140.4,-217.2,-180.6,-214.5,-2.4,-8.7,39.3,-94.1,0,0,210,0,168,0,
0.1167,-133.5,-11.1,-146.1,-191.4,-293.5,-243.3,-194.5,-130.1,-93.0,-330.4,-348.3,-505.0,816.9,-98.6,-337.2,-135.0,-218.4,-191.3,-220.1,-2.7,-12.9,41.7,-102.5,0,0,216,0,169,0,
0.1200,-133.5,-15.9,-149.1,-196.8,-296.2,-255.3,-200.5,-133.7,-91.8,-336.1,-353.7,-501.7,815.1,-92.6,-336.3,-137.4,-219.3,-194.3,-226.1,-2.1,-18.6,36.6,-100.4,0,0,222,0,170,0,
0.1233,-125.4,-8.4,-144.3,-191.1,-293.8,-255.3,-198.1,-134.0,-97.8,-330.4,-351.0,-499.6,818.7,-92.9,-334.8,-130.2,-218.7,-187.4,-224.3,-2.4,-20.1,41.1,-98.3,0,0,228,0,171,0,
0.1267,-125.7,-7.2,-141.9,-190.8,-292.6,-250.2,-198.1,-135.5,-98.1,-329.5,-345.6,-491.5,814.2,-99.5,-328.2,-135.0,-220.5,-184.8,-219.5,-2.4,-11.4,55.8,-98.0,0,0,234,0,172,0,
0.1300,-124.5,-12.0,-143.7,-191.1,-288.1,-251.1,-196.6,-137.6,-89.4,-329.2,-347.4,-493.6,816.3,-94.1,-331.2,-131.4,-219.3,-188.9,-218.9,-2.1,-8.7,54.9,-99.5,0,0,240,0,173,0,
0.1333,-123.6,-12.0,-145.2,-189.6,-290.2,-255.0,-199.6,-132.2,-85.8,-329.5,-349.2,-495.7,816.6,-85.7,-340.5,-133.8,-217.5,-191.0,-219.5,-2.1,-6.0,46.5,-98.0,0,0,246,0,174,0,
0.1367,-122.7,-8.1,-138.9,-186.0,-289.9,-251.1,-193.9,-133.4,-89.1,-323.5,-344.4,-499.6,812.1,-84.2,-333.3,-132.6,-217.8,-184.8,-221.6,-2.7,-7.8,55.8,-91.1,0,0,252,0,175,0,
0.1400,-116.7,-6.6,-139.8,-186.9,-291.1,-252.0,-197.8,-135.2,-97.8,-327.4,-345.6,-490.0,815.4,-84.5,-339.6,-129.9,-220.8,-186.0,-220.1,-2.1,-12.3,48.9,-95.9,0,0,258,0,176,0,
0.1433,-116.1,-3.0,-135.9,-183.6,-283.3,-251.4,-194.8,-133.4,-92.7,-324.4,-343.5,-479.5,816.9,-81.5,-344.7,-133.2,-219.0,-182.7,-216.5,-2.4,-14.7,58.2,-101.3,0,0,264,0,177,0,
0.1467,-120.9,-4.8,-139.5,-179.4,-280.3,-244.2,-191.2,-131.9,-86.4,-318.1,-334.5,-493.9,820.8,-86.9,-338.4,-136.2,-222.3,-181.2,-211.2,-2.1,-6.9,59.7,-90.8,0,0,270,0,178,0,
0.1500,-114.3,-6.3,-137.4,-180.3,-281.2,-242.7,-190.6,-132.8,-85.2,-322.0,-336.9,-490.0,825.9,-84.2,-337.2,-132.0,-218.1,-182.7,-213.6,-1.8,1.5,56.7,-88.4,0,0,276,0,179,0,
0.1533,-120.3,-8.1,-138.9,-184.2,-282.4,-241.8,-189.7,-133.7,-87.0,-325.6,-341.1,-485.5,828.3,-79.4,-335.1,-135.0,-220.8,-188.3,-215.1,-2.4,-4.2,60.0,-90.5,0,0,282,0,180,0,
0.1567,-120.0,-6.6,-137.1,-179.4,-282.4,-246.6,-191.8,-132.5,-93.0,-321.7,-338.1,-480.7,824.1,-93.8,-340.5,-126.9,-216.0,-185.1,-211.2,-2.4,-1.8,57.0,-89.6,0,0,288,0,181,0,
0.1600,-120.9,-6.0,-137.4,-180.3,-283.6,-246.3,-193.9,-134.3,-86.1,-324.1,-338.4,-490.0,820.2,-90.2,-345.6,-138.0,-220.2,-186.8,-208.5,-2.4,-2.7,53.4,-91.4,0,0,294,0,182,0,
0.1633,-124.8,-8.4,-140.4,-184.2,-286.3,-247.8,-194.8,-133.7,-87.6,-325.9,-342.6,-504.1,813.6,-87.2,-336.0,-126.6,-218.1,-188.6,-215.3,-2.1,-7.8,58.2,-96.8,0,0,300,0,183,0,
0.1667,-123.0,-12.3,-142.5,-185.4,-285.4,-243.9,-190.6,-132.5,-83.1,-329.5,-342.3,-489.1,819.9,-86.6,-337.2,-132.0,-219.3,-191.0,-214.2,-2.4,-6.9,61.2,-94.4,0,0,306,0,184,0,
0.1700,-117.3,0.0,-136.2,-180.9,-277.3,-238.8,-187.7,-122.0,-82.2,-326.2,-339.6,-477.4,826.2,-85.4,-341.4,-130.5,-216.9,-185.4,-208.5,-2.4,-2.1,61.8,-86.6,0,0,312,0,185,0,
0.1733,-104.7,7.8,-125.7,-174.6,-271.9,-233.1,-179.3,-118.4,-76.2,-316.3,-332.2,-478.3,831.9,-74.3,-327.6,-133.5,-219.9,-175.5,-202.2,-2.4,4.8,76.8,-81.2,0,0,318,0,186,0,
0.1767,-122.4,-3.3,-133.8,-185.7,-286.9,-243.6,-190.3,-131.0,-93.0,-325.9,-346.2,-494.5,811.8,-89.6,-335.4,-130.5,-217.5,-180.9,-216.8,-2.4,-8.4,69.9,-91.4,0,0,324,0,187,0,
0.1800,-125.4,-7.2,-139.8,-185.4,-284.8,-240.3,-188.9,-128.9,-87.3,-328.3,-342.0,-494.5,821.7,-85.7,-337.2,-132.6,-214.8,-187.1,-214.2,-2.4,-9.0,67.2,-91.4,0,0,330,0,188,0,
0.1833,-124.2,-7.8,-141.0,-188.4,-288.4,-250.5,-194.2,-133.1,-96.9,-328.3,-342.3,-490.0,817.5,-92.6,-346.2,-130.5,-217.5,-186.5,-216.8,-1.8,-12.0,62.7,-101.6,0,0,336,0,189,0,
0.1867,-127.2,-12.3,-142.8,-192.0,-293.5,-250.8,-192.1,-134.6,-94.5,-333.1,-344.7,-492.7,810.0,-96.2,-338.7,-130.5,-217.2,-191.6,-219.8,-2.1,-8.7,70.5,-93.2,0,0,342,0,190,0,
0.1900,-126.3,-13.5,-144.3,-195.9,-297.7,-249.0,-191.2,-133.1,-94.2,-334.9,-351.6,-488.2,807.9,-85.4,-337.5,-129.9,-220.5,-194.3,-220.7,-2.4,-6.3,65.1,-91.4,0,0,348,0,191,0,
0.1933,-125.1,-8.4,-139.8,-191.1,-289.9,-243.3,-193.0,-130.1,-81.9,-326.2,-343.2,-484.3,807.6,-94.7,-340.5,-128.1,-218.7,-187.7,-211.8,-2.7,0.0,64.2,-82.1,0,0,354,0,192,0,
0.1967,-125.1,-8.1,-140.1,-194.7,-291.4,-246.9,-193.0,-133.7,-86.4,-329.8,-346.8,-496.3,809.1,-95.9,-333.9,-123.0,-218.7,-188.3,-216.5,-2.4,-8.4,67.8,-92.9,0,0,360,0,193,0,
0.2000,-126.9,-12.6,-142.5,-194.7,-293.5,-248.4,-196.3,-140.0,-88.2,-330.1,-346.2,-504.1,809.4,-94.1,-335.1,-119.7,-223.2,-191.3,-214.8,-2.4,-8.4,74.7,-93.8,0,0,366,0,194,0,
0.2033,-120.9,-6.3,-140.1,-195.0,-294.4,-245.1,-195.1,-135.8,-97.5,-333.4,-353.7,-491.8,812.7,-100.1,-336.6,-123.6,-223.2,-192.5,-222.8,-2.1,-17.4,72.0,-98.3,0,0,372,0,195,0,
0.2067,-120.9,-9.0,-144.6,-195.9,-293.2,-243.3,-194.2,-134.9,-89.4,-334.3,-351.9,-496.9,814.2,-94.1,-331.8,-126.6,-225.6,-194.0,-216.5,-2.4,-16.8,72.0,-96.2,0,0,378,0,196,0,
0.2100,-124.2,-9.3,-144.3,-194.1,-286.0,-241.8,-194.8,-134.0,-90.0,-331.0,-348.3,-494.2,804.9,-101.5,-339.9,-129.3,-224.7,-191.6,-211.8,-2.4,-12.6,65.1,-91.7,0,0,384,0,197,0,
0.2133,-125.4,-9.3,-142.5,-191.1,-283.9,-240.9,-193.0,-130.7,-87.9,-329.5,-346.2,-508.0,804.9,-99.8,-340.5,-136.5,-219.6,-191.9,-204.3,-2.4,-4.5,65.1,-93.2,0,0,390,0,198,0,
0.2167,-127.5,-9.0,-144.9,-194.1,-289.6,-244.8,-198.4,-136.4,-105.3,-339.1,-356.1,-503.2,803.1,-100.6,-338.1,-127.8,-221.7,-197.0,-208.2,-2.7,-22.8,64.5,-95.9,0,0,396,0,199,0,
0.2200,-125.7,-13.5,-147.9,-190.8,-290.5,-245.1,-195.7,-138.8,-97.2,-335.5,-348.9,-494.5,802.5,-96.8,-338.4,-130.2,-222.9,-196.7,-201.9,-2.7,-12.6,69.3,-93.8,0,0,402,0,200,0,
0.2233,-124.2,-14.4,-142.8,-192.9,-287.2,-245.4,-195.4,-134.0,-102.9,-332.8,-349.2,-495.7,802.8,-95.0,-330.9,-128.1,-222.3,-192.5,-198.9,-2.1,-17.4,74.4,-91.7,0,0,408,0,201,0,
0.2267,-121.2,-11.7,-144.3,-191.1,-288.1,-246.0,-190.6,-134.3,-92.4,-336.4,-351.3,-486.4,801.3,-95.6,-331.5,-128.4,-221.7,-197.3,-195.3,-2.1,-16.8,71.7,-90.2,0,0,414,0,202,0,
0.2300,-121.5,-9.0,-139.8,-188.4,-283.3,-243.6,-189.4,-128.3,-87.3,-329.8,-348.9,-491.8,794.1,-106.3,-338.4,-123.3,-224.7,-185.7,-189.7,-2.4,-14.7,72.6,-91.7,0,0,420,0,203,0,
0.2333,-127.8,-12.0,-140.7,-189.6,-287.8,-244.5,-193.3,-127.4,-95.1,-332.8,-353.4,-495.4,786.3,-103.0,-333.9,-127.2,-219.0,-190.4,-194.1,-2.4,-11.4,59.1,-90.8,0,0,426,0,204,0,
0.2367,-132.3,-19.8,-145.5,-192.0,-283.6,-241.2,-194.8,-129.5,-91.8,-334.6,-352.5,-517.3,789.3,-99.2,-334.2,-132.0,-220.2,-196.7,-192.9,-2.4,-13.8,64.5,-87.2,0,0,432,0,205,0,
0.2400,-125.7,-15.6,-145.8,-189.0,-282.1,-241.5,-194.2,-127.7,-104.4,-332.5,-348.6,-498.4,799.2,-93.8,-338.4,-133.5,-219.3,-194.0,-185.8,-1.8,-18.9,61.2,-95.6,0,0,438,0,206,0,
0.2433,-128.4,-15.3,-144.3,-188.7,-281.5,-243.0,-193.3,-131.9,-105.6,-334.9,-348.6,-506.5,794.7,-100.1,-331.2,-129.3,-220.5,-194.6,-183.1,-2.4,-10.2,66.3,-96.5,0,0,444,0,207,0,
0.2467,-132.6,-17.7,-144.3,-189.0,-285.4,-248.7,-195.4,-134.3,-100.8,-333.4,-351.3,-499.3,798.0,-96.2,-337.2,-126.9,-222.6,-191.9,-186.4,-1.8,-15.9,60.0,-103.1,0,0,450,0,208,0,
0.2500,-130.5,-16.5,-141.9,-189.0,-286.6,-243.6,-196.6,-133.7,-97.5,-333.7,-353.1,-500.5,794.7,-104.8,-335.1,-125.4,-223.5,-192.8,-187.3,-2.4,-11.7,58.5,-99.8,0,0,456,0,209,0,
0.2533,-133.2,-15.6,-143.4,-189.0,-288.1,-246.9,-197.2,-135.8,-94.2,-333.4,-351.0,-496.9,790.2,-107.2,-335.7,-132.3,-223.2,-191.3,-190.0,-2.4,-14.7,68.1,-97.1,0,0,462,0,210,0,
0.2567,-131.7,-19.2,-145.2,-191.1,-289.9,-246.0,-192.7,-133.1,-109.5,-335.5,-356.4,-505.6,789.9,-104.5,-332.4,-126.9,-225.3,-194.6,-192.4,-2.7,-24.0,66.3,-96.2,0,0,468,0,211,0,
0.2600,-132.0,-18.6,-149.7,-194.1,-290.8,-249.0,-196.3,-137.6,-103.8,-341.2,-358.5,-508.3,795.9,-102.7,-336.0,-124.5,-222.9,-199.1,-193.2,-2.4,-19.5,55.5,-101.3,0,0,474,0,212,0,
0.2633,-136.2,-24.9,-152.1,-195.3,-291.7,-243.9,-194.2,-141.2,-105.6,-340.6,-360.9,-503.5,796.5,-95.9,-336.0,-125.7,-225.3,-201.8,-195.3,-2.1,-22.5,65.7,-101.0,0,0,480,0,213,0,
0.2667,-141.9,-18.3,-148.8,-192.0,-284.8,-241.5,-189.7,-138.2,-102.6,-336.4,-357.0,-502.9,796.2,-99.2,-344.1,-129.9,-224.4,-205.4,-187.3,-1.5,-23.4,70.8,-94.4,0,0,486,0,214,0,
0.2700,-131.4,-12.6,-142.8,-187.5,-285.4,-240.6,-188.0,-128.9,-92.7,-331.6,-354.6,-495.7,795.3,-105.4,-337.5,-132.0,-220.2,-196.4,-183.7,-2.7,-12.6,65.1,-99.5,0,0,492,0,215,0,
0.2733,-131.4,-21.6,-152.4,-200.1,-296.2,-249.6,-190.3,-138.5,-101.1,-337.9,-360.9,-504.4,787.8,-99.5,-330.0,-131.1,-222.3,-201.2,-190.3,-2.1,-19.5,58.2,-103.7,0,0,498,0,216,0,
0.2767,-131.4,-11.4,-141.9,-188.7,-289.9,-245.4,-190.6,-132.2,-95.7,-326.8,-351.3,-502.6,780.3,-113.2,-339.6,-128.7,-220.2,-187.1,-185.5,-2.4,-17.4,59.4,-97.4,0,0,504,0,217,0,
0.2800,-136.8,-16.5,-144.9,-192.6,-289.6,-246.0,-186.5,-135.5,-102.0,-334.9,-351.0,-503.2,780.3,-113.5,-341.4,-129.0,-221.1,-195.8,-185.2,-2.1,-15.0,66.0,-97.1,0,0,510,0,218,0,
0.2833,-137.7,-18.9,-149.7,-196.5,-294.4,-254.1,-193.9,-137.6,-111.3,-336.1,-354.9,-504.1,791.7,-107.2,-331.2,-126.3,-222.6,-200.6,-190.9,-2.4,-31.8,58.5,-106.1,0,0,516,0,219,0,
0.2867,-135.6,-18.6,-151.2,-196.5,-292.9,-250.8,-190.0,-137.9,-104.4,-335.2,-358.2,-496.6,793.5,-107.2,-335.4,-124.2,-220.8,-196.1,-191.5,-2.4,-26.4,52.5,-106.4,0,0,522,0,220,0,
0.2900,-136.2,-20.4,-149.4,-195.9,-290.5,-249.3,-193.3,-137.0,-95.7,-341.2,-363.2,-506.5,788.1,-103.0,-335.4,-129.9,-220.8,-201.5,-192.6,-2.7,-32.4,53.4,-100.7,0,0,528,0,221,0,
0.2933,-133.2,-11.1,-144.0,-193.5,-289.9,-252.6,-194.8,-134.6,-94.8,-336.1,-359.1,-506.2,786.9,-110.5,-340.5,-137.7,-219.3,-197.3,-190.6,-2.1,-21.6,56.1,-105.2,0,0,534,0,222,0,
0.2967,-133.8,-15.9,-143.1,-190.2,-293.2,-252.3,-192.4,-132.8,-98.7,-334.9,-360.9,-511.3,790.8,-105.1,-330.9,-129.6,-213.9,-195.5,-188.2,-2.4,-20.7,68.1,-102.8,0,0,540,0,223,0,
0.3000,-135.0,-18.9,-141.6,-192.3,-288.1,-251.4,-192.4,-134.9,-97.5,-337.0,-357.3,-497.5,794.1,-107.2,-339.9,-130.8,-211.2,-200.9,-185.2,-2.7,-15.3,62.1,-93.2,0,0,546,0,224,0,
0.3033,-134.4,-14.7,-144.0,-191.7,-291.4,-253.2,-192.1,-134.3,-111.9,-335.8,-357.9,-500.5,790.5,-108.1,-335.1,-126.3,-212.4,-201.2,-190.3,-2.1,-24.0,72.6,-102.5,0,0,552,0,225,0,
0.3067,-132.6,-15.9,-143.7,-194.4,-293.2,-251.1,-191.8,-136.7,-98.1,-339.4,-359.4,-502.6,788.1,-109.0,-337.5,-134.7,-215.7,-200.9,-191.2,-2.4,-22.2,68.4,-110.0,0,0,558,0,226,0,
0.3100,-132.9,-18.6,-149.4,-196.5,-299.5,-255.3,-193.3,-137.3,-105.9,-343.9,-367.7,-514.9,788.4,-102.7,-332.1,-129.3,-215.1,-199.7,-198.9,-2.1,-30.6,54.6,-113.0,0,0,564,0,227,0,
0.3133,-127.5,-11.7,-141.9,-188.7,-291.4,-247.2,-191.2,-132.8,-98.4,-340.3,-361.2,-496.0,780.3,-107.2,-334.8,-126.0,-213.3,-199.4,-192.1,-2.7,-28.8,62.4,-105.2,0,0,570,0,228,0,
0.3167,-126.6,-11.4,-138.9,-186.3,-285.4,-241.8,-186.8,-128.3,-105.6,-334.9,-354.6,-502.9,777.3,-110.2,-326.4,-124.5,-213.3,-197.3,-183.4,-2.1,-28.8,72.6,-98.0,0,0,576,0,229,0,
0.3200,-116.1,-3.3,-127.8,-176.7,-280.3,-238.2,-185.9,-123.5,-89.1,-327.7,-346.2,-492.4,794.4,-98.9,-331.2,-128.1,-213.3,-185.7,-174.1,-2.7,-11.1,66.6,-91.1,0,0,582,0,230,0,
0.3233,-115.8,-5.7,-132.3,-181.2,-285.1,-240.3,-188.6,-130.1,-90.6,-333.1,-351.3,-498.1,804.0,-90.8,-322.2,-120.0,-214.8,-190.7,-181.6,-2.4,-14.7,66.6,-90.8,0,0,588,0,231,0,
0.3267,-111.9,-2.4,-129.3,-175.2,-273.4,-227.7,-183.8,-123.2,-84.9,-324.4,-344.1,-493.3,806.7,-84.5,-317.1,-129.9,-213.9,-186.0,-168.5,-2.4,-3.9,78.6,-80.9,0,0,594,0,232,0,
0.3300,-113.1,-2.1,-128.7,-174.3,-275.5,-229.2,-184.4,-120.5,-84.6,-324.1,-344.4,-490.6,795.9,-98.0,-328.2,-126.0,-217.8,-178.8,-170.8,-2.4,-17.1,76.2,-81.2,0,0,600,0,233,0,
0.3333,-108.3,-0.3,-128.1,-175.8,-276.4,-226.8,-182.6,-119.3,-89.1,-327.1,-348.3,-491.2,798.9,-89.3,-328.8,-126.9,-229.8,-183.6,-169.9,-2.7,-15.3,82.2,-85.4,0,0,606,0,234,0,
0.3367,-111.9,-3.6,-128.4,-176.1,-275.8,-235.5,-185.0,-122.3,-86.4,-322.0,-345.6,-503.2,793.5,-95.0,-327.0,-122.4,-232.8,-176.4,-172.3,-2.4,-11.1,78.0,-83.0,0,0,612,0,235,0,
0.3400,-113.4,2.1,-124.2,-174.3,-269.8,-233.1,-178.4,-121.7,-93.0,-312.7,-335.1,-502.9,793.8,-94.4,-331.5,-125.7,-236.7,-173.4,-165.5,-2.1,-9.3,81.3,-83.3,0,0,618,0,236,0,
0.3433,-120.3,0.6,-126.9,-176.4,-278.5,-237.6,-184.1,-123.2,-90.3,-321.7,-346.5,-508.3,792.3,-95.3,-327.0,-135.9,-234.3,-178.8,-176.2,-2.4,-19.8,75.0,-90.8,0,0,624,0,237,0,
0.3467,-115.8,0.9,-125.4,-175.2,-276.4,-236.7,-183.5,-123.8,-89.4,-319.3,-342.3,-494.5,800.1,-91.1,-329.1,-129.3,-240.0,-177.0,-174.1,-2.4,-13.5,76.5,-90.8,0,0,630,0,238,0,
0.3500,-117.6,-2.4,-128.1,-178.8,-276.7,-236.4,-180.5,-123.8,-86.4,-322.3,-341.7,-495.4,795.6,-91.4,-319.2,-126.9,-237.6,-181.5,-171.4,-2.1,-8.4,78.9,-84.2,0,0,636,0,239,0,
0.3533,-112.5,4.2,-124.5,-172.2,-271.9,-231.0,-183.8,-118.7,-88.2,-317.2,-336.6,-490.3,798.0,-85.7,-331.8,-130.8,-236.1,-176.4,-166.1,-2.1,-2.1,76.2,-85.1,0,0,642,0,240,0,
0.3567,-114.6,0.3,-124.8,-174.3,-275.2,-233.1,-186.5,-121.1,-93.9,-322.9,-342.0,-506.5,794.1,-92.6,-331.8,-132.3,-234.0,-183.9,-168.5,-2.4,-13.2,71.1,-87.8,0,0,648,0,241,0,
0.3600,-103.2,16.2,-111.1,-160.2,-262.9,-220.5,-176.6,-107.9,-87.0,-309.4,-332.4,-482.8,807.0,-76.4,-318.3,-137.7,-229.5,-170.1,-160.4,-2.1,0.9,85.8,-75.2,0,0,654,0,242,0,
0.3633,-108.6,6.6,-110.8,-160.5,-262.6,-225.0,-173.0,-107.0,-75.3,-306.1,-328.9,-487.9,799.2,-83.0,-317.7,-132.3,-225.6,-163.8,-161.3,-2.4,6.3,86.7,-74.9,0,0,660,0,243,0,
0.3667,-119.1,-3.0,-125.4,-171.6,-274.9,-236.4,-184.4,-121.4,-94.2,-320.5,-338.7,-508.0,790.5,-96.2,-322.2,-134.1,-223.8,-178.8,-170.8,-1.8,-9.3,72.9,-86.0,0,0,666,0,244,0,
0.3700,-115.8,4.5,-120.9,-169.2,-270.1,-233.7,-190.3,-116.9,-83.1,-314.8,-336.6,-493.9,792.6,-93.2,-328.2,-127.5,-220.5,-173.4,-169.9,-2.4,-6.3,63.6,-89.9,0,0,672,0,245,0,
0.3733,-113.4,3.6,-120.0,-164.1,-265.0,-224.4,-181.7,-112.4,-71.7,-313.3,-331.6,-489.4,783.9,-92.9,-324.0,-136.2,-220.8,-166.2,-161.3,-2.4,-0.6,76.5,-77.0,0,0,678,0,246,0,
0.3767,-112.5,3.0,-119.4,-164.7,-264.4,-228.0,-182.3,-111.5,-72.0,-309.1,-331.6,-493.9,787.2,-92.6,-327.3,-135.6,-219.6,-167.7,-164.9,-2.1,-1.5,76.2,-78.8,0,0,684,0,247,0,
0.3800,-112.8,4.8,-122.7,-164.7,-268.0,-226.8,-180.2,-112.4,-87.0,-313.0,-334.8,-493.3,788.7,-92.9,-321.6,-129.0,-222.6,-171.6,-168.2,-2.4,-9.6,80.7,-78.5,0,0,690,0,248,0,
0.3833,-110.4,3.6,-121.8,-163.5,-267.1,-230.4,-179.9,-113.9,-87.0,-311.2,-332.7,-492.4,788.7,-93.5,-319.8,-127.2,-225.0,-166.8,-164.0,-2.1,-10.2,83.1,-87.5,0,0,696,0,249,0,
0.3867,-111.9,5.4,-117.4,-161.4,-267.7,-228.6,-180.8,-111.5,-80.7,-311.8,-331.9,-490.3,793.5,-86.3,-322.2,-132.6,-225.3,-171.9,-162.5,-1.8,-0.3,84.0,-82.7,0,0,702,0,250,0,
0.3900,-113.4,3.9,-121.5,-162.3,-265.3,-227.1,-180.5,-113.0,-81.0,-314.8,-337.5,-487.3,781.5,-95.0,-327.3,-124.8,-222.0,-178.2,-161.6,-2.1,-1.8,87.9,-84.5,0,0,708,0,251,0,
0.3933,-108.3,4.2,-124.2,-164.4,-270.1,-231.0,-182.9,-113.3,-84.6,-314.8,-335.1,-481.6,787.5,-96.8,-329.1,-129.0,-220.5,-175.2,-158.3,-2.4,-2.4,80.1,-86.0,0,0,714,0,252,0,
0.3967,-114.6,3.0,-123.0,-161.4,-269.5,-233.7,-182.9,-114.5,-90.0,-317.5,-337.2,-484.0,784.5,-96.2,-327.6,-126.9,-216.0,-175.5,-162.8,-2.1,1.5,85.5,-86.0,0,0,720,0,253,0,
0.4000,-114.6,2.7,-124.8,-164.7,-269.8,-227.7,-182.0,-117.2,-87.3,-315.4,-335.7,-486.1,789.0,-87.2,-324.3,-128.7,-221.1,-175.5,-161.0,-2.7,-3.9,85.8,-87.5,0,0,726,0,254,0,
0.4033,-117.0,5.4,-122.4,-162.6,-270.1,-229.8,-183.2,-112.4,-88.5,-314.5,-333.0,-487.6,786.3,-93.5,-324.0,-133.2,-221.7,-174.0,-158.9,-2.1,3.0,81.3,-84.2,0,0,732,0,255,0,
0.4067,-116.1,4.2,-124.8,-165.6,-270.7,-231.3,-183.2,-113.0,-72.0,-314.8,-336.0,-484.3,790.8,-92.9,-322.2,-128.4,-221.1,-173.4,-160.4,-2.4,4.5,83.7,-86.6,0,0,738,0,0,0,
0.4100,-115.5,7.8,-121.8,-165.9,-271.3,-232.8,-183.2,-112.1,-67.5,-313.9,-336.3,-487.6,794.7,-97.4,-322.5,-132.9,-221.7,-172.8,-161.0,-2.4,3.3,83.7,-86.3,0,0,744,0,1,0,
0.4133,-110.1,15.0,-116.5,-159.9,-263.2,-225.9,-175.7,-107.3,-75.0,-307.0,-331.0,-481.0,803.1,-94.4,-317.1,-128.7,-221.1,-166.5,-152.0,-2.1,12.0,90.6,-83.0,0,0,750,0,2,0,
0.4167,-116.1,7.2,-123.0,-166.2,-274.0,-231.6,-183.5,-109.1,-84.0,-315.4,-338.4,-483.1,796.8,-98.0,-317.7,-130.8,-217.8,-175.2,-165.8,-2.4,0.6,78.9,-86.9,0,0,756,0,3,0,
0.4200,-110.1,8.4,-123.6,-162.9,-264.7,-225.9,-177.2,-108.2,-81.6,-311.2,-334.2,-485.5,799.8,-96.2,-319.8,-123.6,-222.3,-175.2,-157.7,-2.4,5.4,82.2,-74.0,0,0,762,0,4,0,
0.4233,-114.0,5.4,-126.6,-168.6,-267.4,-228.9,-178.4,-113.6,-79.5,-315.7,-336.9,-481.9,803.4,-93.2,-323.1,-127.2,-222.9,-175.5,-161.3,-2.4,3.9,77.4,-83.3,0,0,768,0,5,0,
0.4267,-114.6,2.4,-131.7,-172.2,-271.3,-231.3,-174.8,-114.2,-80.7,-318.1,-337.8,-486.1,801.0,-90.8,-328.5,-128.7,-216.9,-181.2,-163.7,-2.4,1.8,87.3,-83.3,0,0,774,0,6,0,
0.4300,-115.5,3.3,-128.7,-171.9,-272.2,-229.5,-177.8,-115.4,-73.8,-321.7,-347.1,-479.8,799.5,-87.8,-327.0,-128.7,-182.4,-177.0,-168.2,-2.4,-5.1,89.7,-85.4,0,0,780,0,7,0,
0.4333,-116.1,1.5,-133.2,-173.1,-274.3,-232.5,-180.8,-113.6,-78.6,-319.0,-340.5,-483.1,798.0,-86.9,-323.4,-127.2,-106.5,-176.4,-168.8,-2.4,2.7,81.3,-82.1,0,0,786,0,8,0,
0.4367,-117.3,-2.1,-138.3,-178.8,-277.9,-234.9,-182.3,-117.2,-89.1,-324.1,-344.7,-488.2,798.9,-81.5,-318.9,-124.2,-27.0,-182.7,-172.9,-2.4,-9.6,79.8,-86.6,0,0,792,0,9,0,
0.4400,-115.2,-0.3,-137.1,-174.0,-275.2,-231.0,-179.9,-113.0,-83.4,-323.8,-343.8,-484.9,795.6,-85.4,-323.1,-128.4,-40.8,-178.2,-169.9,-2.1,6.6,75.0,-83.0,0,0,798,0,10,0,
0.4433,-108.0,1.8,-132.9,-170.1,-272.8,-231.6,-178.4,-112.1,-81.0,-321.7,-339.0,-491.8,793.8,-89.9,-321.9,-126.9,-178.5,-180.3,-168.5,-2.1,0.6,88.2,-80.9,0,0,804,0,11,0,
0.4467,-109.2,0.0,-136.2,-174.6,-275.5,-231.6,-179.9,-114.2,-75.3,-323.2,-341.4,-499.0,802.2,-80.3,-317.7,-126.9,-394.2,-179.7,-169.7,-2.4,1.2,85.5,-85.4,0,0,810,0,12,0,
0.4500,-99.9,9.3,-128.4,-167.1,-271.3,-222.9,-170.9,-109.7,-62.1,-314.2,-337.5,-472.9,807.0,-77.3,-313.5,-127.8,-693.9,-173.7,-168.5,-2.7,-1.8,93.0,-80.6,0,0,816,0,13,0,
0.4533,-108.3,-1.2,-137.4,-178.2,-284.8,-234.3,-180.2,-118.1,-75.6,-325.6,-350.7,-482.8,792.3,-87.8,-321.6,-130.8,-990.9,-182.1,-180.4,-2.4,-8.4,82.2,-91.1,0,0,822,0,14,0,
0.4567,-114.9,-9.6,-147.0,-187.2,-294.4,-246.0,-185.0,-124.4,-80.1,-334.3,-358.5,-496.3,795.0,-78.5,-322.8,-127.2,-1239.0,-193.7,-188.2,-2.7,-24.0,81.0,-98.6,0,0,828,0,15,0,
0.4600,-115.8,-13.8,-150.6,-193.8,-299.8,-250.2,-188.9,-128.3,-96.6,-340.9,-368.6,-500.8,798.9,-74.0,-318.6,-122.1,-1313.1,-198.2,-195.6,-2.4,-33.6,78.9,-99.8,0,0,834,0,16,0,
0.4633,-117.0,-9.6,-147.6,-187.5,-295.9,-247.8,-188.0,-127.1,-88.8,-336.1,-362.0,-498.4,793.5,-83.3,-323.1,-124.2,-1267.2,-197.0,-192.4,-2.4,-27.9,76.5,-102.2,0,0,840,0,17,0,
0.4667,-122.4,-18.0,-151.5,-192.6,-298.6,-246.9,-187.1,-133.4,-95.4,-340.0,-365.9,-505.9,782.4,-80.9,-310.5,-124.8,-1010.4,-203.3,-195.0,-2.1,-20.1,84.9,-98.3,0,0,846,0,18,0,
0.4700,-122.1,-18.3,-150.0,-190.8,-292.6,-244.2,-185.6,-130.7,-99.0,-334.6,-358.5,-512.8,777.0,-85.1,-319.8,-126.9,-751.2,-202.1,-189.7,-2.4,-15.3,84.0,-93.5,0,0,852,0,19,0,
0.4733,-120.3,-15.0,-143.7,-186.0,-289.3,-246.0,-188.6,-128.9,-94.5,-331.3,-350.7,-511.3,785.1,-83.9,-327.6,-125.1,-514.5,-193.1,-178.6,-2.1,-11.4,76.8,-96.8,0,0,858,0,20,0,
0.4767,-120.9,-11.7,-138.0,-183.3,-284.2,-237.0,-185.6,-123.2,-94.5,-325.3,-346.2,-503.5,777.3,-80.3,-324.0,-128.1,-399.9,-189.2,-179.5,-2.1,-5.4,78.3,-96.2,0,0,864,0,21,0,
0.4800,-119.7,-11.4,-133.2,-178.2,-281.8,-235.5,-185.0,-122.0,-93.0,-322.3,-344.7,-511.9,777.3,-80.3,-332.7,-120.0,-417.3,-186.2,-174.7,-2.4,-14.7,74.7,-90.2,0,0,870,0,22,0,
0.4833,-119.7,-6.0,-133.5,-176.7,-280.0,-237.0,-182.6,-122.3,-91.8,-322.3,-340.5,-506.5,778.5,-82.4,-331.2,-127.5,-405.9,-188.3,-175.6,-2.1,-9.9,83.4,-91.4,0,0,876,0,23,0,
0.4867,-121.8,-11.1,-135.0,-176.7,-283.3,-237.0,-184.7,-124.1,-90.9,-321.7,-338.7,-496.0,780.0,-86.3,-325.8,-132.3,-369.6,-191.9,-176.8,-2.1,-7.8,82.8,-94.1,0,0,882,0,24,0,
0.4900,-120.0,-10.2,-134.4,-179.1,-290.2,-239.1,-185.0,-120.8,-90.9,-324.7,-348.6,-491.8,784.8,-82.1,-324.6,-117.9,-315.6,-186.2,-184.6,-2.4,-17.7,82.5,-92.3,0,0,888,0,25,0,
0.4933,-126.0,-11.1,-133.5,-178.5,-287.8,-238.8,-187.7,-121.7,-92.7,-325.6,-350.4,-494.5,770.8,-89.6,-325.2,-119.4,-288.9,-183.3,-182.2,-2.7,-13.8,77.1,-89.9,0,0,894,0,26,0,
0.4967,-126.9,-9.9,-133.8,-176.1,-286.3,-240.6,-190.0,-119.3,-96.3,-322.3,-348.6,-490.0,767.8,-90.8,-326.1,-134.4,-272.4,-183.6,-183.4,-2.7,-10.5,73.8,-95.3,0,0,900,0,27,0,
0.5000,-125.1,-14.7,-136.2,-174.9,-282.4,-240.9,-187.1,-120.8,-105.6,-322.0,-345.0,-498.4,766.9,-94.4,-324.9,-126.9,-261.6,-184.2,-179.5,-2.1,-12.0,79.2,-95.9,0,0,906,0,28,0,
0.5033,-122.7,-12.3,-139.2,-178.2,-282.7,-240.0,-186.2,-116.0,-110.7,-337.9,-354.0,-501.1,767.5,-92.0,-325.8,-120.0,-253.8,-208.4,-185.8,-2.1,-19.5,69.0,-99.8,0,0,912,0,29,0,
0.5067,-129.6,-20.1,-156.6,-188.1,-292.6,-248.1,-190.3,-121.7,-117.0,-369.3,-383.9,-529.0,766.9,-96.2,-328.8,-126.6,-246.0,-236.5,-210.6,-2.1,-27.6,67.5,-113.3,0,0,918,0,30,0,
0.5100,-127.2,-12.0,-145.8,-184.2,-290.8,-246.3,-187.4,-122.9,-112.5,-357.6,-383.9,-536.8,751.9,-101.2,-323.1,-120.3,-237.3,-214.1,-212.4,-2.4,-27.3,70.8,-109.7,0,0,924,0,31,0,
0.5133,-124.8,-6.3,-132.9,-174.6,-281.5,-241.5,-188.3,-122.9,-91.8,-318.7,-350.4,-508.9,766.9,-93.8,-324.6,-134.4,-232.8,-174.9,-184.9,-1.8,-10.8,75.6,-98.3,0,0,930,0,32,0,
0.5167,-119.7,-1.5,-123.3,-169.5,-277.9,-240.0,-191.5,-124.4,-87.3,-301.0,-333.0,-478.0,780.6,-72.8,-321.9,-129.3,-228.6,-153.7,-170.2,-2.4,-2.7,71.7,-95.3,0,0,936,0,33,0,
0.5200,-122.1,-2.7,-129.9,-171.3,-279.1,-240.6,-190.6,-127.4,-86.4,-304.3,-335.1,-491.2,780.3,-92.3,-326.7,-127.8,-228.6,-160.2,-175.3,-2.4,-6.6,71.7,-93.8,0,0,942,0,34,0,
0.5233,-117.6,1.5,-123.9,-170.1,-280.0,-236.4,-184.4,-122.6,-88.5,-315.7,-347.7,-486.1,776.1,-90.2,-326.4,-121.5,-223.8,-166.8,-189.1,-2.4,-20.1,83.1,-105.2,0,0,948,0,35,0,
0.5267,-121.2,0.6,-132.9,-176.7,-285.4,-246.0,-187.1,-126.8,-87.3,-325.3,-360.6,-492.1,779.1,-83.0,-314.7,-125.4,-222.6,-175.2,-203.1,-2.4,-23.1,74.4,-111.8,0,0,954,0,36,0,
0.5300,-123.0,0.6,-129.6,-176.1,-287.2,-248.1,-187.4,-125.3,-84.3,-316.6,-359.7,-481.9,771.4,-89.9,-314.7,-126.9,-223.2,-164.7,-209.4,-2.4,-25.8,75.9,-111.2,0,0,960,0,37,0,
0.5333,-119.7,3.6,-119.7,-168.6,-285.1,-247.5,-188.3,-124.1,-73.5,-309.7,-361.7,-483.7,770.8,-92.0,-330.0,-136.2,-222.0,-155.5,-212.4,-2.1,-25.5,66.9,-109.1,0,0,966,0,38,0,
0.5367,-116.7,0.6,-124.2,-171.3,-289.0,-252.3,-190.6,-125.6,-84.0,-314.8,-362.9,-482.2,775.8,-88.4,-320.4,-125.4,-221.7,-165.6,-210.6,-2.1,-21.0,71.4,-106.7,0,0,972,0,39,0,
0.5400,-116.7,1.2,-128.7,-174.0,-286.0,-252.9,-193.3,-125.9,-88.5,-314.2,-357.0,-479.5,777.6,-81.5,-324.3,-127.2,-223.8,-161.7,-206.1,-2.1,-26.1,69.6,-106.4,0,0,978,0,40,0,
0.5433,-124.5,-6.0,-129.6,-175.2,-289.9,-248.4,-191.2,-129.5,-86.4,-316.6,-360.3,-486.4,764.8,-95.6,-325.2,-125.1,-226.2,-164.4,-206.7,-2.1,-24.3,68.4,-105.8,0,0,984,0,41,0,
0.5467,-123.3,-11.4,-140.1,-184.8,-298.6,-254.4,-188.9,-132.5,-94.5,-331.3,-372.2,-496.9,771.7,-86.6,-322.8,-124.5,-226.8,-180.3,-216.5,-2.4,-29.4,74.4,-109.7,0,0,990,0,42,0,
0.5500,-121.5,-7.5,-131.4,-179.4,-292.9,-247.2,-185.9,-126.2,-88.2,-321.1,-362.0,-492.7,761.8,-99.8,-336.0,-129.0,-221.7,-171.3,-207.3,-2.4,-20.7,61.8,-104.0,0,0,996,0,43,0,
0.5533,-121.2,-1.2,-128.7,-176.1,-294.4,-251.4,-188.9,-127.7,-84.3,-320.5,-362.3,-485.8,759.1,-95.9,-326.4,-129.6,-219.3,-164.4,-206.7,-2.1,-21.6,60.0,-101.3,0,0,1002,0,44,0,
0.5567,-117.0,0.9,-133.5,-177.6,-295.0,-248.7,-190.6,-127.4,-88.2,-329.5,-368.9,-495.4,765.7,-86.9,-322.5,-131.7,-222.0,-172.5,-210.0,-2.4,-28.5,64.8,-103.7,0,0,1008,0,45,0,
0.5600,-115.5,-1.8,-124.2,-172.5,-288.4,-242.7,-182.9,-123.2,-81.3,-321.1,-363.2,-493.6,762.1,-90.5,-326.1,-129.6,-222.3,-162.9,-206.4,-2.4,-26.7,67.2,-93.2,0,0,1014,0,46,0,
0.5633,-115.5,4.5,-119.1,-168.9,-280.9,-238.5,-178.7,-122.0,-82.8,-312.4,-355.2,-469.9,761.2,-83.6,-320.4,-128.7,-224.4,-157.3,-196.5,-2.1,-18.6,68.1,-91.1,0,0,1020,0,47,0,
0.5667,-120.3,-0.6,-126.9,-175.5,-289.0,-246.6,-188.0,-128.0,-80.4,-319.6,-360.3,-480.7,768.1,-86.9,-318.9,-129.9,-227.7,-161.1,-205.2,-2.1,-28.5,56.7,-99.8,0,0,1026,0,48,0,
0.5700,-122.7,-3.3,-133.2,-179.7,-295.0,-252.0,-193.0,-131.9,-85.8,-329.5,-370.1,-484.0,767.5,-84.5,-323.1,-131.7,-229.5,-171.6,-217.7,-2.4,-36.6,54.6,-107.0,0,0,1032,0,49,0,
0.5733,-119.1,1.8,-129.9,-176.7,-294.1,-253.2,-192.7,-125.3,-89.7,-325.9,-368.0,-490.6,773.1,-80.6,-318.9,-132.9,-227.4,-168.3,-214.2,-2.1,-26.4,62.4,-107.0,0,0,1038,0,50,0,
0.5767,-117.3,4.5,-127.5,-174.3,-291.1,-249.9,-187.7,-124.1,-86.7,-320.5,-362.6,-511.0,770.8,-90.8,-315.9,-131.7,-230.4,-162.9,-210.3,-2.1,-21.6,74.1,-109.7,0,0,1044,0,51,0,
0.5800,-109.2,15.3,-121.8,-167.1,-283.0,-244.5,-179.3,-113.0,-86.1,-318.4,-357.6,-494.8,782.4,-81.8,-312.6,-132.0,-230.1,-160.8,-204.6,-2.4,-24.3,78.6,-105.2,0,0,1050,0,52,0,
0.5833,-120.6,-3.0,-135.0,-177.0,-292.6,-249.6,-190.0,-123.8,-88.8,-324.1,-365.9,-485.5,769.3,-94.7,-334.2,-129.9,-234.9,-174.0,-215.1,-2.1,-24.0,61.8,-113.0,0,0,1056,0,53,0,
0.5867,-120.3,0.0,-134.4,-177.6,-292.3,-249.9,-188.9,-122.0,-87.9,-324.7,-365.0,-485.5,772.3,-88.4,-324.6,-127.5,-234.6,-169.2,-212.7,-1.8,-22.8,55.5,-109.7,0,0,1062,0,54,0,
0.5900,-122.4,-0.9,-130.5,-179.4,-290.8,-245.7,-189.7,-125.9,-78.3,-319.9,-362.3,-489.1,757.3,-90.2,-323.4,-130.2,-237.0,-166.2,-210.0,-2.1,-24.3,58.5,-107.6,0,0,1068,0,55,0,
0.5933,-123.3,0.3,-131.7,-178.2,-292.3,-245.4,-190.6,-123.2,-87.3,-321.4,-366.5,-500.5,762.4,-87.5,-324.0,-129.0,-236.7,-166.2,-211.8,-2.7,-34.2,57.3,-112.7,0,0,1074,0,56,0,
0.5967,-122.7,-0.3,-130.8,-181.5,-296.8,-247.5,-194.8,-126.5,-94.5,-327.4,-374.0,-488.8,766.9,-86.3,-327.0,-128.4,-240.6,-170.4,-221.3,-2.1,-36.3,60.0,-105.5,0,0,1080,0,57,0,
0.6000,-123.3,-4.8,-129.6,-184.2,-298.0,-251.7,-193.0,-128.6,-100.5,-329.5,-374.6,-489.7,769.9,-90.2,-318.6,-128.7,-242.4,-168.9,-219.2,-2.1,-42.9,63.3,-104.6,0,0,1086,0,58,0,
0.6033,-124.5,-6.3,-129.3,-182.1,-296.2,-252.3,-195.1,-128.0,-97.5,-323.8,-371.9,-493.0,765.4,-84.8,-321.0,-129.6,-243.3,-170.1,-215.6,-2.1,-37.5,60.0,-107.0,0,0,1092,0,59,0,
0.6067,-125.1,-7.2,-136.5,-188.4,-302.5,-252.3,-196.3,-133.7,-94.5,-333.1,-375.8,-493.0,763.6,-86.3,-318.3,-133.2,-247.8,-173.4,-221.0,-2.1,-43.8,55.8,-99.2,0,0,1098,0,60,0,
0.6100,-123.6,-9.0,-138.3,-188.1,-304.3,-250.5,-195.1,-134.0,-91.2,-335.2,-381.8,-489.4,768.4,-86.9,-331.2,-128.1,-248.1,-174.9,-226.1,-2.1,-36.9,55.8,-115.1,0,0,1104,0,61,0,
0.6133,-133.5,-9.6,-141.0,-192.0,-307.6,-255.0,-194.5,-133.7,-96.3,-335.8,-382.4,-495.7,760.0,-96.5,-333.3,-132.6,-253.8,-178.8,-226.7,-2.1,-36.9,51.6,-113.3,0,0,1110,0,62,0,
0.6167,-131.4,-3.3,-135.6,-188.1,-302.8,-249.9,-194.2,-132.2,-88.2,-326.2,-379.1,-493.3,754.3,-96.8,-339.0,-129.3,-261.3,-170.7,-222.8,-2.1,-38.1,49.2,-108.2,0,0,1116,0,63,0,
0.6200,-135.0,-10.5,-140.7,-190.2,-303.7,-253.5,-195.7,-136.7,-78.6,-330.7,-376.4,-514.6,746.8,-92.9,-326.7,-134.7,-264.6,-172.2,-218.0,-2.1,-35.1,49.5,-107.0,0,0,1122,0,64,0,
0.6233,-132.3,-3.0,-138.3,-190.5,-308.5,-255.3,-196.0,-136.4,-93.9,-332.8,-385.4,-490.0,759.7,-87.2,-330.0,-120.9,-263.7,-169.8,-227.3,-2.7,-39.3,48.9,-112.4,0,0,1128,0,65,0,
0.6267,-127.5,-12.6,-146.1,-194.7,-308.5,-259.5,-193.6,-140.6,-95.7,-341.2,-375.8,-493.3,770.2,-81.5,-331.8,-124.2,-265.8,-179.7,-218.9,-2.4,-41.1,44.1,-114.5,0,0,1134,0,66,0,
0.6300,-127.2,-13.8,-147.9,-197.4,-315.1,-261.6,-196.9,-142.1,-93.0,-346.0,-388.4,-490.6,763.6,-88.1,-336.0,-136.8,-269.1,-179.4,-224.9,-2.4,-46.5,47.1,-116.6,0,0,1140,0,67,0,
0.6333,-124.2,-10.8,-144.3,-189.6,-307.3,-261.3,-192.7,-139.1,-84.3,-328.6,-373.4,-502.6,763.3,-90.5,-333.6,-134.1,-271.2,-171.0,-215.6,-2.1,-37.5,42.0,-116.9,0,0,1146,0,68,0,
0.6367,-123.3,-6.6,-139.8,-189.0,-305.2,-255.9,-194.2,-141.5,-96.6,-327.7,-368.9,-495.7,763.0,-87.2,-332.1,-132.0,-272.7,-171.6,-211.2,-2.4,-40.2,36.6,-112.1,0,0,1152,0,69,0,
0.6400,-125.7,-8.1,-138.0,-188.4,-304.3,-253.5,-193.0,-140.3,-98.7,-322.9,-361.2,-494.8,768.4,-84.5,-329.7,-140.4,-279.6,-161.1,-211.2,-2.4,-38.1,38.1,-111.2,0,0,1158,0,70,0,
0.6433,-127.5,-6.0,-133.2,-183.6,-302.5,-252.9,-191.5,-136.4,-99.0,-314.5,-353.1,-482.8,763.0,-87.5,-332.7,-137.4,-282.9,-153.1,-204.3,-2.1,-45.3,35.7,-110.6,0,0,1164,0,71,0,
0.6467,-128.7,-6.3,-135.6,-180.9,-300.7,-252.3,-187.1,-131.0,-99.0,-304.0,-337.2,-483.1,759.4,-95.6,-325.2,-138.0,-286.2,-150.4,-205.8,-2.4,-43.8,41.4,-107.6,0,0,1170,0,72,0,
0.6500,-125.1,-3.3,-129.6,-173.4,-286.6,-247.8,-188.3,-128.6,-97.5,-301.3,-290.6,-491.8,754.6,-96.5,-337.5,-133.5,-288.9,-149.5,-155.0,-1.8,-45.3,32.4,-107.0,0,0,1176,0,73,0,
0.6533,-126.0,-0.9,-128.4,-172.8,-281.5,-242.7,-188.3,-127.7,-112.8,-302.8,-287.9,-485.5,756.1,-95.0,-338.1,-137.1,-295.8,-145.3,-127.8,-2.1,-43.8,31.5,-103.7,0,0,1182,0,74,0,
0.6567,-127.2,3.6,-121.2,-172.2,-289.9,-243.6,-185.9,-124.7,-104.4,-277.7,-325.9,-476.5,753.4,-95.9,-339.0,-130.2,-297.6,-125.6,-179.8,-2.7,-43.8,34.2,-106.7,0,0,1188,0,75,0,
0.6600,-119.7,6.0,-110.8,-156.3,-276.7,-233.7,-181.1,-118.4,-97.5,-250.7,-269.7,-478.3,757.3,-95.3,-341.1,-134.4,-298.2,-105.8,-149.6,-2.4,-42.3,41.7,-98.3,0,0,1194,0,76,0,
0.6633,-123.6,8.7,-104.8,-153.6,-272.8,-236.7,-178.4,-119.0,-107.4,-231.8,-256.8,-501.1,751.6,-100.6,-348.0,-129.0,-299.7,-88.2,-141.9,-2.7,-51.9,32.1,-103.1,0,0,1200,0,77,0,
0.6667,-127.2,6.3,-99.7,-147.9,-274.0,-238.8,-183.5,-119.6,-102.3,-219.6,-238.9,-489.4,756.1,-98.0,-347.1,-136.5,-299.4,-82.8,-132.6,-1.8,-50.7,23.4,-101.0,0,0,1206,0,78,0,
0.6700,-126.9,7.2,-99.1,-140.7,-270.1,-236.4,-183.2,-119.9,-106.2,-204.9,-223.6,-475.6,746.5,-102.4,-342.0,-133.8,-304.2,-68.5,-121.9,-2.4,-57.9,26.4,-103.1,0,0,1212,0,79,0,
0.6733,-125.4,6.3,-100.3,-140.7,-268.0,-238.2,-186.5,-124.4,-112.2,-201.6,-206.3,-481.0,745.6,-106.6,-342.6,-132.0,-308.1,-70.0,-111.7,-2.4,-61.8,21.6,-104.3,0,0,1218,0,80,0,
0.6767,-123.6,10.5,-88.0,-128.1,-258.1,-232.8,-185.9,-121.7,-114.0,-150.1,-161.4,-479.8,744.1,-113.2,-360.9,-126.3,-315.0,-35.9,-87.5,-2.4,-65.1,25.5,-103.4,0,0,1224,0,81,0,
0.6800,-124.5,11.4,-86.5,-124.5,-252.1,-228.0,-183.5,-117.5,-112.2,-153.1,-147.7,-484.9,741.4,-107.5,-354.0,-125.7,-313.8,-35.0,-76.5,-2.7,-66.6,16.5,-98.0,0,0,1230,0,82,0,
0.6833,-125.7,8.7,-90.1,-127.2,-255.4,-231.0,-188.9,-122.3,-116.1,-149.8,-152.8,-479.8,743.5,-101.2,-361.5,-128.7,-322.2,-30.8,-72.3,-2.4,-59.4,8.1,-98.3,0,0,1236,0,83,0,
0.6867,-126.0,11.7,-83.5,-117.0,-244.0,-231.0,-186.5,-122.6,-104.1,-117.1,-109.1,-481.3,742.6,-102.7,-354.6,-138.0,-319.8,-6.9,-48.1,-2.4,-53.4,19.2,-92.6,0,0,1242,0,84,0,
0.6900,-123.0,12.3,-82.6,-117.6,-244.6,-230.1,-189.7,-122.9,-111.0,-108.4,-101.6,-482.2,726.1,-104.8,-357.9,-131.4,-322.5,-3.6,-44.5,-2.1,-54.6,14.7,-96.5,0,0,1248,0,85,0,
0.6933,-122.1,9.6,-81.1,-114.0,-240.7,-229.2,-188.0,-118.7,-119.7,-96.2,-82.8,-488.2,721.9,-102.1,-355.8,-129.9,-323.1,3.9,-32.0,-2.4,-60.3,11.7,-94.7,0,0,1254,0,86,0,
0.6967,-121.8,7.8,-81.7,-110.1,-234.7,-223.2,-184.7,-117.2,-123.6,-79.4,-68.2,-480.4,703.6,-110.5,-357.3,-128.1,-322.8,10.5,-19.7,-2.1,-48.6,23.4,-88.1,0,0,1260,0,87,0,
0.7000,-119.4,5.7,-81.1,-109.5,-232.3,-225.9,-184.7,-118.4,-125.7,-68.0,-54.7,-485.2,695.8,-110.8,-353.7,-127.5,-321.6,14.1,-20.9,-2.4,-57.9,21.9,-90.8,0,0,1266,0,88,0,
0.7033,-120.6,5.4,-84.4,-114.3,-241.6,-231.0,-189.1,-118.4,-128.7,-75.5,-63.7,-482.5,691.9,-105.1,-358.2,-129.0,-319.5,10.2,-27.8,-1.8,-66.3,8.4,-98.9,0,0,1272,0,89,0,
0.7067,-117.6,10.2,-81.4,-114.0,-239.5,-235.5,-188.0,-120.2,-121.8,-59.9,-53.8,-478.3,692.2,-103.0,-355.2,-127.8,-318.9,23.3,-24.2,-2.4,-64.5,10.8,-94.7,0,0,1278,0,90,0,
0.7100,-115.5,15.3,-73.3,-105.0,-232.9,-225.3,-187.7,-116.9,-112.8,-41.6,-41.6,-478.3,670.1,-117.7,-355.2,-130.5,-310.2,42.2,-12.8,-2.4,-58.8,10.2,-86.9,0,0,1284,0,91,0,
0.7133,-114.0,16.8,-71.2,-105.0,-235.6,-230.4,-193.6,-120.2,-114.3,-43.1,-37.1,-481.3,674.6,-99.2,-362.1,-131.4,-303.9,38.3,-8.7,-2.4,-66.3,3.9,-88.7,0,0,1290,0,92,0,
0.7167,-120.9,21.3,-66.8,-99.3,-229.0,-226.2,-187.4,-116.6,-117.0,-31.2,-23.9,-493.0,659.0,-103.3,-358.8,-129.6,-296.4,43.3,3.6,-2.7,-62.7,9.0,-99.5,0,0,1296,0,93,0,
0.7200,-122.1,23.1,-61.1,-98.4,-229.0,-231.6,-191.8,-113.3,-128.7,-17.4,-19.4,-481.3,660.2,-108.7,-358.8,-129.6,-288.3,55.9,6.9,-2.4,-69.0,6.3,-100.1,0,0,1302,0,94,0,
0.7233,-129.0,15.0,-66.5,-97.8,-226.9,-229.5,-189.7,-114.8,-135.3,-17.7,-4.8,-485.8,658.1,-109.9,-357.3,-130.8,-278.4,49.0,18.8,-2.7,-60.9,13.2,-93.5,0,0,1308,0,95,0,
0.7267,-130.8,9.3,-70.7,-101.7,-229.3,-231.6,-190.3,-116.0,-132.6,-23.7,-12.9,-483.7,654.8,-110.8,-360.3,-133.2,-272.4,45.7,7.2,-2.7,-66.3,10.8,-98.6,0,0,1314,0,96,0,
0.7300,-126.0,11.4,-65.0,-101.4,-229.9,-229.2,-187.4,-121.4,-130.2,-21.3,-17.0,-476.2,652.7,-105.1,-353.4,-131.7,-264.3,49.3,3.9,-2.4,-70.8,9.6,-98.0,0,0,1320,0,97,0,
0.7333,-120.9,16.2,-57.2,-98.4,-222.8,-224.1,-187.7,-114.2,-115.5,-12.0,-12.6,-468.1,644.9,-112.0,-360.9,-133.8,-255.9,63.7,10.5,-2.4,-72.0,7.5,-91.1,0,0,1326,0,98,0,
0.7367,-123.3,15.9,-59.3,-98.7,-225.7,-225.0,-189.7,-114.5,-128.1,-1.8,-2.7,-477.1,650.3,-110.5,-362.1,-129.6,-247.8,68.5,12.2,-2.4,-70.2,3.0,-90.8,0,0,1332,0,99,0,
0.7400,-124.8,21.6,-54.8,-93.9,-224.5,-227.1,-189.1,-113.9,-118.2,1.5,4.2,-487.0,653.6,-104.8,-366.0,-129.0,-243.9,70.9,20.9,-2.4,-66.9,-2.1,-92.0,0,0,1338,0,100,0,
0.7433,-123.6,26.1,-51.5,-91.8,-224.8,-226.2,-190.6,-118.1,-124.8,0.0,4.2,-469.6,650.9,-110.8,-359.4,-134.4,-240.6,70.9,23.3,-2.4,-65.7,5.1,-102.2,0,0,1344,0,101,0,
0.7467,-119.4,21.9,-50.9,-91.2,-221.0,-226.5,-188.3,-117.2,-124.2,12.9,16.1,-479.2,659.0,-106.0,-360.3,-126.3,-238.5,72.9,28.1,-2.1,-63.9,6.6,-98.6,0,0,1350,0,102,0,
0.7500,-118.8,23.1,-47.3,-91.8,-220.1,-227.1,-185.6,-113.6,-123.9,6.3,6.0,-480.1,647.6,-111.1,-356.7,-130.5,-234.6,74.1,25.7,-2.7,-62.1,6.9,-92.6,0,0,1356,0,103,0,
0.7533,-116.7,17.4,-51.2,-92.4,-223.6,-225.3,-182.6,-115.4,-132.9,12.9,14.6,-490.3,648.8,-110.8,-351.3,-120.3,-232.8,72.3,31.4,-2.4,-65.7,11.4,-95.6,0,0,1362,0,104,0,
0.7567,-115.2,16.8,-50.9,-95.1,-222.8,-225.0,-185.9,-113.0,-132.9,9.6,16.1,-484.0,656.0,-103.9,-352.2,-146.7,-230.7,70.3,31.7,-2.4,-62.4,12.9,-93.8,0,0,1368,0,105,0,
0.7600,-113.1,12.6,-57.8,-93.9,-224.8,-223.5,-182.6,-114.2,-137.9,5.7,11.7,-482.8,654.5,-98.9,-354.0,-125.7,-230.7,62.2,27.8,-2.4,-72.6,16.5,-90.2,0,0,1374,0,106,0,
0.7633,-112.8,15.0,-52.7,-86.4,-216.5,-218.1,-177.8,-112.1,-123.9,12.6,20.9,-472.0,654.2,-96.5,-347.1,-134.1,-227.4,70.9,40.6,-2.1,-60.9,19.5,-84.5,0,0,1380,0,107,0,
0.7667,-113.7,16.2,-57.2,-87.6,-220.1,-218.7,-177.2,-112.4,-126.9,15.0,22.1,-475.9,650.9,-98.3,-350.7,-137.4,-228.0,69.4,43.6,-2.4,-66.3,18.0,-89.6,0,0,1386,0,108,0,
0.7700,-114.3,16.5,-55.1,-88.8,-218.0,-216.0,-174.8,-110.6,-126.6,6.3,18.2,-476.2,653.6,-100.9,-354.0,-135.0,-225.0,67.9,41.2,-2.4,-60.0,20.1,-87.5,0,0,1392,0,109,0,
0.7733,-112.2,15.0,-54.8,-88.5,-223.1,-223.5,-183.2,-112.1,-129.0,13.8,14.9,-475.0,646.1,-108.7,-351.0,-134.4,-223.2,74.1,30.2,-2.4,-62.4,7.5,-96.2,0,0,1398,0,110,0,
0.7767,-116.7,9.9,-55.1,-93.0,-224.5,-222.9,-184.1,-115.1,-126.3,17.1,18.8,-482.8,634.1,-106.3,-347.1,-135.6,-223.5,78.3,30.5,-2.4,-68.4,18.9,-90.8,0,0,1404,0,111,0,
0.7800,-108.6,22.2,-49.4,-84.9,-219.8,-221.4,-180.5,-110.9,-128.1,23.7,25.7,-477.4,644.3,-113.8,-351.6,-131.4,-223.2,82.8,34.3,-2.4,-66.0,22.5,-87.5,0,0,1410,0,112,0,
0.7833,-113.1,17.1,-46.4,-80.1,-214.7,-216.9,-170.9,-107.9,-121.2,20.4,24.8,-481.3,646.1,-96.2,-335.1,-127.8,-224.7,80.1,37.3,-2.1,-55.8,29.7,-78.8,0,0,1416,0,113,0,
0.7867,-119.7,10.5,-51.5,-84.3,-219.8,-228.6,-179.6,-114.5,-123.9,19.8,21.5,-486.1,642.5,-103.3,-339.6,-135.6,-220.5,79.2,32.0,-2.4,-60.9,20.1,-91.7,0,0,1422,0,114,0,
0.7900,-117.3,15.6,-46.4,-87.0,-217.4,-228.9,-185.9,-114.2,-109.8,22.5,23.9,-481.3,647.6,-107.8,-351.6,-129.0,-220.2,81.0,36.7,-2.1,-56.7,17.1,-91.7,0,0,1428,0,115,0,
0.7933,-115.2,15.0,-51.8,-88.2,-226.9,-230.7,-187.7,-118.7,-131.4,13.2,15.2,-478.3,647.0,-99.5,-344.7,-137.1,-220.5,74.7,27.2,-2.1,-66.6,13.2,-95.3,0,0,1434,0,116,0,
0.7967,-114.6,17.7,-43.4,-82.8,-222.8,-230.7,-188.0,-114.2,-129.3,25.2,19.7,-477.7,635.9,-99.8,-348.0,-135.6,-222.0,84.9,30.5,-2.1,-68.7,11.7,-97.1,0,0,1440,0,117,0,
0.8000,-114.0,24.9,-35.0,-75.0,-212.9,-224.1,-184.7,-108.5,-113.7,31.8,26.3,-460.0,635.9,-104.2,-345.0,-127.5,-221.7,93.6,42.1,-2.4,-54.3,18.3,-85.1,0,0,1446,0,118,0,
0.8033,-120.3,20.1,-38.6,-75.0,-213.2,-222.9,-183.8,-109.1,-121.8,27.3,28.7,-464.5,636.2,-106.0,-351.6,-133.2,-224.7,81.3,47.2,-2.4,-57.0,17.7,-91.1,0,0,1452,0,119,0,
0.8067,-115.8,21.6,-43.4,-79.2,-218.3,-225.0,-178.7,-110.3,-123.0,22.2,23.0,-483.4,644.0,-96.8,-340.5,-125.4,-221.1,77.7,41.2,-2.1,-61.8,17.1,-97.7,0,0,1458,0,120,0,
0.8100,-114.9,18.3,-47.0,-82.5,-224.5,-225.0,-185.3,-113.9,-142.1,7.8,9.9,-490.0,638.6,-109.0,-350.7,-138.3,-224.1,65.8,27.8,-2.4,-77.7,13.5,-94.4,0,0,1464,0,121,0,
0.8133,-110.7,29.7,-35.6,-73.8,-215.6,-221.7,-181.7,-107.3,-123.3,24.0,23.0,-467.2,649.7,-103.9,-355.8,-144.6,-218.7,85.5,38.5,-2.7,-66.3,9.3,-94.7,0,0,1470,0,122,0,
0.8167,-109.5,25.2,-34.4,-70.5,-209.0,-220.8,-181.7,-103.4,-123.9,31.8,34.1,-467.8,650.3,-101.8,-354.6,-136.2,-219.9,87.0,48.7,-2.4,-55.2,14.4,-90.5,0,0,1476,0,123,0,
0.8200,-108.0,24.6,-37.4,-75.0,-212.9,-223.8,-179.9,-107.0,-125.1,19.2,21.5,-465.7,653.9,-98.9,-353.1,-134.7,-219.9,76.2,37.0,-2.4,-66.9,12.0,-95.0,0,0,1482,0,124,0,
0.8233,-108.9,21.6,-47.9,-87.0,-221.6,-230.1,-185.3,-112.1,-128.4,0.0,-1.8,-477.7,649.7,-99.2,-351.0,-130.5,-219.9,65.5,14.9,-2.1,-87.9,14.7,-104.6,0,0,1488,0,125,0,
0.8267,-106.5,29.1,-42.2,-81.0,-215.3,-227.4,-185.9,-111.5,-130.5,14.4,12.6,-479.5,647.9,-105.1,-351.9,-135.0,-222.0,79.5,32.0,-2.1,-79.8,12.9,-95.6,0,0,1494,0,126,0,
0.8300,-97.2,33.6,-32.0,-64.8,-202.7,-215.1,-177.2,-102.2,-110.7,36.2,35.3,-473.2,652.7,-97.4,-344.1,-137.7,-221.1,93.0,51.4,-2.4,-53.1,25.2,-78.5,0,0,1500,0,127,0,
0.8333,-99.3,29.7,-37.1,-70.8,-210.5,-218.7,-177.8,-104.9,-118.2,14.1,19.1,-476.2,648.8,-97.1,-345.9,-134.7,-221.1,70.9,37.0,-2.7,-59.4,24.9,-84.2,0,0,1506,0,128,0,
0.8367,-99.9,32.4,-39.2,-75.0,-213.8,-224.7,-182.0,-107.3,-120.3,6.9,7.8,-494.8,643.7,-100.3,-353.4,-137.4,-219.6,64.9,25.4,-2.1,-63.6,21.9,-97.1,0,0,1512,0,129,0,
0.8400,-105.0,32.1,-44.3,-80.7,-222.5,-227.7,-183.5,-111.5,-132.6,-1.8,-5.4,-477.4,644.0,-106.6,-357.9,-136.2,-218.7,60.7,17.3,-2.1,-78.3,21.9,-105.2,0,0,1518,0,130,0,
0.8433,-105.3,25.8,-41.0,-77.4,-218.6,-222.9,-184.1,-107.6,-125.7,6.6,3.9,-470.5,646.4,-105.7,-359.7,-136.5,-221.4,68.5,27.5,-2.4,-72.6,25.5,-94.7,0,0,1524,0,131,0,
0.8467,-106.8,25.2,-46.1,-78.6,-218.6,-222.9,-179.9,-107.6,-131.7,2.4,4.5,-472.0,641.3,-97.1,-351.6,-137.1,-223.2,62.8,29.3,-2.4,-58.8,30.9,-87.5,0,0,1530,0,132,0,
0.8500,-105.3,26.1,-44.0,-79.5,-218.0,-224.1,-183.2,-108.2,-115.8,-4.5,-2.1,-466.9,644.6,-101.8,-362.4,-140.4,-223.2,59.2,27.5,-2.7,-58.5,39.6,-90.8,0,0,1536,0,133,0,
0.8533,-108.9,27.3,-45.5,-79.8,-217.1,-219.6,-182.3,-106.4,-120.9,-11.7,-7.2,-472.6,638.3,-98.3,-363.9,-134.1,-223.8,50.2,25.1,-2.1,-58.2,36.0,-87.2,0,0,1542,0,134,0,
0.8567,-108.3,25.2,-50.3,-82.5,-219.8,-226.8,-188.9,-110.0,-123.6,-21.9,-20.9,-481.3,629.6,-98.0,-355.2,-133.2,-220.2,41.9,14.3,-2.1,-69.9,23.4,-92.6,0,0,1548,0,135,0,
0.8600,-105.3,25.5,-49.1,-86.1,-222.5,-222.3,-184.1,-108.5,-129.0,-31.2,-29.9,-484.3,622.1,-100.6,-348.9,-131.1,-221.1,32.3,8.7,-2.1,-67.8,25.2,-88.4,0,0,1554,0,136,0,
0.8633,-104.1,25.5,-49.7,-81.3,-217.7,-219.3,-189.1,-110.6,-119.1,-27.9,-28.7,-477.7,629.3,-98.0,-360.6,-135.3,-219.0,38.9,10.8,-2.4,-60.9,21.0,-87.2,0,0,1560,0,137,0,
0.8667,-100.8,27.3,-46.4,-76.2,-213.5,-210.0,-181.1,-102.5,-109.8,-24.6,-25.4,-467.8,643.1,-84.2,-346.5,-133.8,-224.7,41.0,15.8,-1.8,-47.4,36.6,-82.7,0,0,1566,0,138,0,
0.8700,-102.9,26.7,-56.3,-90.3,-223.6,-218.7,-185.3,-109.7,-120.3,-47.9,-48.1,-472.9,639.5,-93.5,-354.6,-135.6,-222.3,22.4,1.8,-2.4,-57.6,34.5,-94.4,0,0,1572,0,139,0,
0.8733,-105.3,21.9,-59.9,-92.4,-230.2,-222.9,-184.7,-110.6,-115.2,-54.8,-56.8,-474.1,641.0,-89.3,-345.6,-133.2,-220.8,17.9,-4.5,-2.4,-57.3,40.8,-91.7,0,0,1578,0,140,0,
0.8767,-101.7,25.5,-55.7,-90.0,-227.8,-220.8,-184.7,-110.0,-114.6,-47.3,-54.7,-467.8,651.2,-88.4,-349.8,-135.0,-221.7,30.2,-6.6,-2.4,-52.5,37.5,-93.2,0,0,1584,0,141,0,
0.8800,-105.6,20.1,-60.8,-93.0,-234.1,-219.3,-179.6,-112.7,-118.2,-56.9,-64.0,-471.7,644.9,-90.2,-342.0,-134.7,-222.0,20.0,-18.5,-2.1,-51.0,47.4,-88.7,0,0,1590,0,142,0,
0.8833,-108.3,21.0,-61.1,-93.3,-230.2,-217.2,-180.5,-109.7,-100.8,-65.6,-70.9,-477.4,646.4,-93.5,-348.3,-133.8,-221.4,12.0,-17.6,-1.8,-42.0,46.8,-86.9,0,0,1596,0,143,0,
0.8867,-107.4,22.2,-63.2,-99.0,-233.8,-220.5,-181.4,-111.5,-93.9,-71.6,-80.7,-462.7,647.0,-96.5,-345.6,-134.1,-221.4,10.5,-25.1,-2.4,-38.4,47.4,-83.6,0,0,1602,0,144,0,
0.8900,-107.7,17.4,-70.1,-106.8,-236.8,-220.5,-179.3,-113.0,-106.2,-89.0,-97.2,-469.9,648.5,-100.6,-351.9,-138.3,-222.6,-2.7,-37.0,-2.4,-47.1,36.0,-88.4,0,0,1608,0,145,0,
0.8933,-111.0,13.5,-76.0,-114.3,-237.4,-221.1,-180.5,-114.8,-110.1,-98.2,-107.3,-482.2,642.2,-92.3,-343.8,-135.0,-223.2,-11.1,-43.3,-2.4,-48.6,40.5,-92.3,0,0,1614,0,146,0,
0.8967,-106.5,18.3,-73.3,-111.9,-235.6,-222.3,-179.3,-111.2,-105.6,-97.6,-106.7,-487.0,643.1,-98.9,-352.8,-137.1,-222.6,-9.9,-39.1,-2.4,-44.7,40.2,-84.5,0,0,1620,0,147,0,
0.9000,-113.4,10.8,-79.0,-113.4,-240.1,-222.9,-180.2,-114.5,-112.8,-112.0,-115.4,-484.0,643.4,-100.6,-349.2,-135.0,-220.5,-26.3,-44.5,-1.8,-49.8,48.3,-90.8,0,0,1626,0,148,0,
0.9033,-111.6,16.8,-79.3,-116.4,-244.6,-225.9,-176.6,-113.6,-108.9,-122.8,-128.0,-471.7,650.9,-98.6,-351.0,-138.6,-222.6,-28.4,-54.1,-2.4,-49.2,50.1,-87.2,0,0,1632,0,149,0,
0.9067,-114.9,14.7,-73.9,-118.2,-242.2,-226.2,-178.1,-111.2,-98.7,-121.6,-131.2,-475.0,643.4,-102.4,-340.5,-128.4,-222.9,-24.8,-56.7,-2.1,-44.1,45.6,-87.2,0,0,1638,0,150,0,
0.9100,-111.9,18.6,-76.9,-121.2,-246.4,-234.3,-185.9,-114.5,-108.9,-126.7,-140.2,-484.3,652.1,-101.2,-347.4,-139.8,-219.0,-30.8,-65.1,-2.4,-55.5,30.6,-95.0,0,0,1644,0,151,0,
0.9133,-110.7,14.7,-76.0,-116.7,-238.3,-226.5,-182.6,-112.7,-99.0,-122.2,-139.0,-475.0,651.5,-99.8,-341.7,-141.0,-219.3,-28.4,-57.3,-2.7,-37.8,42.6,-87.5,0,0,1650,0,152,0,
0.9167,-114.6,12.0,-80.5,-120.0,-245.5,-229.2,-184.4,-117.8,-105.9,-133.6,-149.2,-470.8,641.6,-104.8,-347.4,-134.4,-218.4,-38.6,-63.3,-2.1,-44.7,47.4,-87.5,0,0,1656,0,153,0,
0.9200,-110.4,11.4,-85.0,-125.7,-250.9,-230.4,-186.8,-118.4,-112.2,-146.8,-159.0,-471.7,641.3,-105.1,-348.6,-130.5,-220.2,-48.1,-71.1,-2.1,-42.9,40.8,-98.0,0,0,1662,0,154,0,
0.9233,-113.7,14.4,-85.9,-128.4,-252.1,-234.3,-184.1,-121.1,-106.5,-148.3,-164.4,-485.2,635.0,-105.4,-351.6,-142.2,-221.1,-54.1,-75.6,-2.4,-42.3,37.8,-96.2,0,0,1668,0,155,0,
0.9267,-117.0,7.8,-89.5,-126.3,-252.7,-235.8,-184.1,-123.8,-96.3,-152.8,-163.5,-477.1,628.4,-107.2,-345.0,-142.2,-220.8,-53.2,-74.7,-2.4,-38.7,36.9,-87.8,0,0,1674,0,156,0,
0.9300,-103.2,19.2,-84.1,-122.4,-247.3,-227.7,-181.7,-118.1,-93.3,-150.7,-162.6,-477.4,643.4,-93.2,-334.8,-136.5,-217.8,-48.1,-73.8,-2.1,-36.9,48.6,-83.0,0,0,1680,0,157,0,
0.9333,-101.1,17.4,-82.3,-122.7,-247.9,-226.2,-183.5,-118.1,-89.1,-157.6,-169.8,-472.0,652.4,-89.0,-346.5,-135.3,-217.2,-49.6,-80.3,-2.1,-31.2,43.8,-86.0,0,0,1686,0,158,0,
0.9367,-111.6,7.8,-90.7,-131.7,-255.7,-232.8,-187.4,-121.1,-108.3,-168.6,-185.1,-470.5,639.5,-104.2,-353.7,-132.9,-215.7,-62.5,-90.5,-2.1,-48.9,48.6,-95.6,0,0,1692,0,159,0,
0.9400,-109.2,7.2,-92.2,-132.9,-261.4,-241.2,-185.9,-125.0,-102.3,-173.4,-190.4,-470.5,642.2,-93.5,-349.8,-136.8,-216.6,-66.1,-95.9,-2.4,-49.2,45.6,-97.1,0,0,1698,0,160,0,
0.9433,-111.0,6.0,-91.0,-132.3,-259.9,-240.0,-184.7,-121.7,-99.3,-173.7,-193.4,-478.3,646.1,-89.3,-340.5,-135.3,-215.7,-67.3,-98.6,-2.4,-37.5,52.8,-87.2,0,0,1704,0,161,0,
0.9467,-104.4,12.6,-88.0,-127.2,-250.9,-235.2,-179.9,-119.6,-89.1,-171.3,-186.9,-478.9,656.0,-83.3,-336.9,-135.9,-216.0,-65.8,-88.4,-2.4,-40.2,49.2,-84.5,0,0,1710,0,162,0,
0.9500,-112.8,7.5,-96.1,-135.9,-259.6,-240.3,-187.1,-124.7,-101.7,-180.3,-194.3,-476.5,642.8,-98.0,-345.6,-133.5,-215.1,-72.3,-97.4,-2.4,-43.5,44.1,-89.6,0,0,1716,0,163,0,
0.9533,-112.5,7.8,-94.3,-137.1,-261.4,-240.0,-188.3,-124.1,-93.0,-185.7,-199.7,-476.2,650.6,-85.7,-342.9,-135.6,-214.8,-70.0,-102.1,-2.1,-32.4,48.6,-92.0,0,0,1722,0,164,0,
0.9567,-111.6,12.3,-90.1,-132.0,-257.8,-234.9,-187.7,-124.1,-94.2,-179.7,-199.1,-473.8,644.6,-94.4,-345.0,-132.9,-216.3,-66.7,-99.2,-2.4,-36.6,46.8,-94.4,0,0,1728,0,165,0,
0.9600,-113.1,12.0,-93.7,-135.6,-257.2,-237.6,-187.1,-129.2,-93.9,-184.8,-205.7,-473.5,652.4,-87.8,-344.1,-133.2,-216.6,-71.5,-104.8,-2.4,-36.0,52.2,-89.9,0,0,1734,0,166,0,
0.9633,-113.1,9.9,-93.7,-135.9,-258.4,-238.2,-185.6,-125.9,-93.9,-192.0,-210.5,-474.4,644.3,-88.1,-335.4,-129.9,-215.4,-70.9,-109.6,-2.1,-36.6,60.0,-86.6,0,0,1740,0,167,0,
0.9667,-111.3,9.9,-97.0,-137.1,-259.3,-234.6,-185.6,-123.8,-86.7,-194.1,-212.9,-467.5,651.2,-82.7,-340.2,-134.4,-214.2,-74.4,-115.6,-2.4,-31.8,57.0,-82.1,0,0,1746,0,168,0,
0.9700,-114.3,9.6,-96.7,-139.8,-259.6,-231.0,-182.0,-119.9,-84.3,-200.1,-217.3,-472.0,644.9,-83.3,-341.4,-137.4,-214.8,-80.1,-114.7,-2.7,-35.7,63.0,-98.0,0,0,1752,0,169,0,
0.9733,-114.6,9.6,-95.8,-138.0,-260.2,-235.8,-183.5,-116.6,-97.2,-204.3,-221.2,-481.0,646.7,-84.8,-345.6,-131.7,-213.3,-85.2,-115.0,-2.4,-37.5,55.2,-99.2,0,0,1758,0,170,0,
0.9767,-114.6,9.0,-104.2,-144.0,-265.6,-231.3,-181.4,-119.9,-102.9,-214.5,-229.9,-476.5,645.5,-84.2,-344.4,-134.1,-213.0,-97.5,-122.2,-2.4,-42.9,59.7,-89.9,0,0,1764,0,171,0,
0.9800,-108.0,9.3,-104.2,-143.1,-266.2,-230.7,-179.3,-116.6,-96.6,-216.3,-233.8,-487.0,645.2,-77.9,-335.4,-130.8,-212.7,-93.6,-125.1,-2.1,-43.5,60.6,-87.5,0,0,1770,0,172,0,
0.9833,-105.0,11.4,-101.5,-139.5,-260.2,-230.1,-176.9,-114.8,-85.5,-212.4,-230.5,-487.6,648.5,-80.6,-339.3,-130.8,-213.0,-92.7,-117.4,-2.4,-30.9,63.9,-82.1,0,0,1776,0,173,0,
0.9867,-109.5,4.8,-106.0,-146.4,-267.1,-237.6,-179.9,-119.3,-101.4,-225.2,-238.6,-487.9,647.0,-78.2,-338.7,-130.8,-213.3,-105.2,-125.1,-2.4,-45.6,58.2,-92.9,0,0,1782,0,174,0,
0.9900,-115.2,4.2,-102.7,-145.8,-265.6,-237.6,-180.8,-120.2,-100.2,-224.1,-241.0,-480.1,633.8,-88.1,-348.6,-132.3,-212.4,-102.5,-126.9,-2.4,-44.1,50.1,-94.1,0,0,1788,0,175,0,
0.9933,-115.8,4.5,-106.0,-146.7,-266.2,-233.7,-184.4,-119.6,-99.0,-224.4,-242.8,-485.2,628.1,-91.7,-351.3,-130.8,-212.7,-104.3,-129.6,-2.4,-41.1,46.5,-89.0,0,0,1794,0,176,0,
0.9967,-118.8,-0.6,-112.3,-151.8,-271.0,-234.0,-180.8,-120.5,-105.3,-235.4,-251.7,-487.9,631.1,-88.7,-347.4,-131.7,-214.2,-110.9,-137.4,-2.1,-45.6,54.9,-96.2,0,0,1800,0,177,0,
1.0000,-113.4,0.3,-114.7,-153.3,-273.7,-238.8,-185.0,-120.8,-104.4,-236.9,-256.2,-493.3,634.7,-91.4,-352.8,-131.4,-215.1,-111.2,-141.6,-2.4,-50.1,46.5,-101.0,0,0,1806,0,178,0,
1.0033,-114.9,-5.1,-122.7,-156.6,-280.0,-242.4,-189.1,-128.6,-111.9,-247.4,-267.0,-498.7,633.2,-85.1,-345.6,-131.7,-215.4,-118.1,-147.3,-2.4,-55.8,46.5,-107.6,0,0,1812,0,179,0,
1.0067,-116.7,-3.6,-120.6,-155.1,-276.1,-238.8,-182.3,-125.9,-102.0,-245.3,-264.9,-496.3,619.1,-95.6,-337.2,-132.9,-214.8,-115.1,-146.7,-2.4,-42.9,46.2,-97.7,0,0,1818,0,180,0,
1.0100,-119.4,-8.1,-121.2,-151.8,-275.8,-239.1,-181.7,-126.2,-103.2,-245.3,-262.2,-512.2,615.5,-98.3,-347.7,-133.8,-213.3,-122.0,-146.4,-2.1,-50.4,46.2,-95.6,0,0,1824,0,181,0,
1.0133,-116.7,2.4,-118.3,-148.5,-274.3,-240.6,-189.1,-123.5,-102.0,-242.0,-262.8,-495.7,615.8,-104.8,-360.6,-135.0,-212.7,-118.1,-146.1,-2.1,-39.3,36.0,-102.5,0,0,1830,0,182,0,
1.0167,-118.8,1.2,-114.7,-148.5,-274.9,-240.6,-185.9,-124.1,-102.0,-243.2,-266.4,-505.9,617.9,-105.1,-351.6,-131.4,-210.9,-110.3,-146.7,-2.7,-43.5,48.6,-100.7,0,0,1836,0,183,0,
1.0200,-119.4,3.9,-112.6,-151.5,-275.5,-243.3,-180.2,-125.9,-105.0,-243.5,-267.3,-503.8,618.8,-99.2,-345.9,-130.8,-214.2,-110.0,-149.9,-2.1,-43.2,49.2,-101.0,0,0,1842,0,184,0,
1.0233,-121.8,-5.7,-123.3,-156.0,-282.4,-250.2,-188.0,-131.3,-100.5,-254.0,-274.5,-515.2,623.9,-95.3,-353.1,-135.6,-213.6,-124.1,-156.2,-2.1,-43.8,44.1,-101.9,0,0,1848,0,185,0,
1.0267,-120.3,-4.8,-121.2,-159.6,-283.3,-247.2,-190.3,-129.2,-104.1,-257.0,-275.6,-494.5,627.8,-94.4,-348.9,-140.4,-213.3,-125.0,-152.6,-2.1,-46.2,50.7,-107.6,0,0,1854,0,186,0,
1.0300,-112.5,-5.1,-121.8,-160.2,-284.5,-247.5,-189.4,-134.3,-105.6,-257.9,-280.4,-487.3,640.1,-81.8,-349.8,-134.7,-215.7,-127.4,-160.1,-1.8,-51.9,53.1,-104.6,0,0,1860,0,187,0,
1.0333,-110.1,1.2,-115.3,-157.2,-280.3,-241.2,-182.9,-125.0,-93.9,-255.2,-276.5,-486.7,639.5,-90.5,-345.3,-134.1,-210.6,-123.5,-158.0,-2.4,-36.9,59.1,-97.4,0,0,1866,0,188,0,
1.0367,-114.0,-1.2,-123.3,-163.5,-286.6,-249.0,-191.2,-131.3,-102.9,-261.8,-287.9,-502.3,628.4,-89.3,-351.0,-126.9,-212.4,-133.3,-167.3,-2.4,-50.7,50.7,-102.5,0,0,1872,0,189,0,
1.0400,-113.1,-3.9,-124.2,-165.3,-289.0,-248.4,-189.7,-129.2,-104.7,-264.2,-291.2,-499.9,639.2,-89.6,-348.0,-124.8,-212.7,-134.8,-170.2,-2.7,-38.4,52.8,-108.5,0,0,1878,0,190,0,
1.0433,-111.3,-4.2,-131.1,-171.0,-290.8,-250.8,-189.1,-134.3,-102.0,-271.7,-296.0,-495.1,638.9,-92.3,-344.4,-139.2,-211.8,-140.8,-174.1,-2.1,-43.8,55.8,-109.4,0,0,1884,0,191,0,
1.0467,-114.6,-4.2,-129.3,-169.2,-287.8,-244.2,-180.5,-132.2,-100.2,-269.9,-293.9,-495.4,639.8,-85.4,-344.7,-138.0,-213.3,-140.2,-167.3,-2.4,-35.7,64.8,-101.6,0,0,1890,0,192,0,
1.0500,-108.9,-3.6,-130.5,-170.1,-291.1,-246.0,-181.1,-132.5,-97.5,-274.7,-297.8,-485.5,644.3,-78.8,-337.8,-137.4,-211.5,-142.0,-172.3,-2.1,-39.0,58.8,-103.7,0,0,1896,0,193,0,
1.0533,-111.3,-6.9,-138.6,-177.6,-293.8,-250.5,-182.9,-134.3,-104.7,-277.4,-304.0,-496.3,645.5,-73.4,-331.2,-134.7,-211.8,-146.8,-175.6,-2.4,-46.5,57.9,-102.5,0,0,1902,0,194,0,
1.0567,-113.1,-11.1,-143.1,-178.2,-297.4,-254.7,-186.5,-136.7,-109.8,-280.7,-307.9,-501.7,653.0,-71.9,-328.2,-134.1,-209.7,-148.6,-178.3,-2.1,-43.2,62.7,-109.7,0,0,1908,0,195,0,
1.0600,-116.1,-12.0,-141.6,-180.3,-298.6,-249.6,-184.1,-131.6,-99.0,-285.5,-311.5,-498.7,660.5,-79.4,-330.6,-132.6,-213.3,-151.9,-178.3,-2.7,-43.8,65.1,-106.7,0,0,1914,0,196,0,
1.0633,-108.6,-5.1,-133.5,-173.7,-292.3,-245.4,-180.2,-131.9,-90.9,-276.2,-300.8,-490.3,658.4,-83.0,-334.8,-129.3,-212.4,-141.7,-170.8,-2.4,-27.6,68.7,-95.6,0,0,1920,0,197,0,
1.0667,-105.3,-1.8,-134.7,-176.1,-294.4,-244.5,-181.7,-134.3,-89.7,-275.6,-303.7,-491.8,655.7,-76.7,-331.5,-132.6,-213.9,-140.8,-179.8,-2.7,-39.3,66.0,-111.2,0,0,1926,0,198,0,
1.0700,-107.7,-0.9,-135.0,-177.3,-299.5,-250.5,-184.1,-134.0,-98.4,-279.8,-312.4,-490.9,652.7,-74.9,-331.2,-133.2,-211.2,-140.5,-187.0,-2.4,-36.0,69.0,-108.2,0,0,1932,0,199,0,
1.0733,-105.6,0.0,-132.9,-174.9,-296.8,-245.4,-174.5,-130.7,-96.9,-279.8,-309.7,-500.2,653.6,-75.2,-325.8,-132.9,-210.0,-139.9,-182.8,-2.1,-32.1,73.2,-101.3,0,0,1938,0,200,0,
1.0767,-109.2,-6.3,-134.4,-176.4,-298.3,-253.8,-182.3,-135.5,-99.3,-280.7,-314.2,-505.0,652.1,-70.7,-341.1,-132.9,-209.4,-145.3,-188.8,-2.4,-39.9,65.7,-111.5,0,0,1944,0,201,0,
1.0800,-108.0,-6.6,-138.9,-176.4,-299.8,-252.9,-183.2,-131.3,-102.0,-283.1,-316.6,-500.5,646.1,-73.1,-341.7,-127.5,-212.7,-148.9,-192.4,-2.7,-42.6,54.3,-110.6,0,0,1950,0,202,0,
1.0833,-111.3,-5.7,-136.8,-176.4,-295.3,-249.0,-181.7,-130.7,-96.9,-281.9,-313.9,-502.0,641.6,-85.4,-347.4,-128.7,-212.1,-148.3,-179.5,-2.4,-36.6,53.4,-106.7,0,0,1956,0,203,0,
1.0867,-115.8,-15.6,-147.6,-179.7,-297.7,-254.4,-181.4,-135.2,-106.5,-289.0,-318.4,-515.5,639.2,-82.7,-342.9,-131.4,-211.5,-153.1,-189.4,-2.4,-36.3,47.7,-110.0,0,0,1962,0,204,0,
1.0900,-119.1,-8.4,-139.2,-174.6,-292.0,-246.6,-176.9,-132.5,-101.1,-287.6,-316.0,-517.0,635.9,-88.1,-343.2,-133.8,-211.5,-151.3,-182.2,-2.1,-38.1,48.3,-110.6,0,0,1968,0,205,0,
1.0933,-117.6,-9.6,-141.3,-176.4,-290.5,-248.1,-180.8,-134.6,-100.8,-286.4,-316.9,-515.8,635.6,-88.4,-347.1,-138.9,-209.4,-150.4,-185.8,-2.4,-41.1,45.0,-115.7,0,0,1974,0,206,0,
1.0967,-117.0,-12.0,-141.0,-178.8,-294.1,-247.8,-180.2,-136.1,-112.5,-287.3,-318.7,-504.1,629.3,-87.5,-341.7,-132.9,-212.1,-151.6,-181.0,-2.4,-39.9,51.0,-107.9,0,0,1980,0,207,0,
1.1000,-117.6,-16.2,-142.2,-179.4,-298.6,-254.1,-183.2,-139.7,-104.4,-288.7,-320.8,-519.7,626.3,-90.2,-342.0,-135.3,-213.3,-151.3,-188.2,-2.7,-48.0,44.7,-105.5,0,0,1986,0,208,0,
1.1033,-116.7,-11.7,-143.1,-183.9,-300.1,-256.2,-186.2,-140.3,-107.7,-295.6,-329.8,-524.8,629.3,-90.5,-345.3,-129.9,-215.1,-154.3,-190.6,-2.7,-44.7,43.8,-110.9,0,0,1992,0,209,0,
1.1067,-118.2,-12.0,-136.8,-179.1,-292.9,-249.6,-180.2,-135.2,-103.8,-287.6,-316.6,-506.8,627.5,-97.1,-344.1,-134.1,-213.0,-153.7,-178.9,-2.4,-42.3,55.2,-106.1,0,0,1998,0,210,0,
1.1100,-120.0,-15.3,-136.2,-180.3,-294.4,-249.9,-178.4,-135.5,-94.2,-289.0,-318.4,-496.3,631.4,-87.2,-334.2,-137.7,-212.1,-157.0,-183.4,-2.4,-44.1,57.0,-108.8,0,0,2004,0,211,0,
1.1133,-116.1,-12.0,-133.5,-178.5,-294.1,-251.1,-182.9,-135.2,-97.5,-289.0,-318.7,-497.8,644.0,-83.6,-336.6,-136.8,-210.9,-149.5,-184.9,-2.7,-30.0,50.1,-115.4,0,0,2010,0,212,0,
1.1167,-115.8,-13.2,-139.2,-185.1,-301.3,-251.1,-179.9,-137.3,-99.6,-288.5,-320.2,-500.2,651.2,-79.4,-329.1,-132.0,-210.9,-151.6,-186.1,-2.1,-41.7,59.1,-108.2,0,0,2016,0,213,0,
1.1200,-115.2,-13.2,-143.7,-190.5,-304.9,-254.7,-182.6,-141.8,-108.9,-296.8,-330.4,-508.6,663.5,-78.2,-334.5,-133.5,-212.1,-158.1,-195.6,-2.1,-44.4,52.8,-113.9,0,0,2022,0,214,0,
1.1233,-114.9,-9.3,-143.1,-189.6,-305.8,-255.9,-181.4,-142.1,-98.4,-294.4,-328.6,-499.3,665.3,-74.0,-334.5,-131.1,-212.4,-155.2,-193.5,-2.4,-45.6,54.3,-112.1,0,0,2028,0,215,0,
1.1267,-115.8,-12.0,-143.1,-190.2,-305.2,-255.9,-179.6,-143.9,-94.8,-298.3,-327.1,-506.2,669.2,-74.0,-331.2,-132.6,-212.1,-160.2,-191.8,-2.1,-31.2,60.9,-110.3,0,0,2034,0,216,0,
1.1300,-108.3,-10.2,-141.9,-186.0,-306.1,-252.0,-178.7,-142.4,-92.4,-294.1,-325.9,-499.3,678.5,-68.0,-324.6,-134.4,-208.8,-158.4,-189.1,-2.7,-30.3,65.7,-106.4,0,0,2040,0,217,0,
1.1333,-102.9,-3.3,-136.5,-185.1,-302.5,-248.1,-178.4,-140.0,-91.8,-290.2,-322.3,-501.7,671.3,-74.0,-327.0,-133.8,-208.8,-153.4,-187.9,-2.1,-27.6,64.5,-105.5,0,0,2046,0,218,0,
1.1367,-101.4,-3.3,-137.7,-184.5,-301.9,-245.7,-174.8,-139.1,-89.1,-291.7,-328.0,-506.2,671.9,-70.1,-323.7,-131.1,-209.4,-159.6,-193.5,-2.4,-31.8,70.5,-107.3,0,0,2052,0,219,0,
1.1400,-106.2,-7.5,-141.0,-189.9,-304.9,-250.2,-179.9,-141.2,-93.9,-297.1,-328.0,-505.0,665.0,-70.7,-324.0,-133.2,-209.1,-161.4,-198.9,-2.1,-38.1,57.9,-115.7,0,0,2058,0,220,0,
1.1433,-107.4,-3.0,-136.5,-181.2,-300.7,-246.3,-177.2,-137.0,-89.7,-290.8,-321.4,-496.9,672.8,-83.0,-339.6,-132.6,-212.1,-152.8,-192.6,-2.1,-28.8,48.9,-100.7,0,0,2064,0,221,0,
1.1467,-109.5,-9.0,-138.6,-185.4,-300.7,-247.8,-177.8,-137.9,-88.2,-294.7,-328.0,-507.1,671.9,-79.1,-339.9,-133.8,-210.9,-156.4,-195.0,-3.0,-37.5,49.5,-110.3,0,0,2070,0,222,0,
1.1500,-109.8,-3.3,-134.4,-182.4,-299.2,-247.8,-179.6,-138.5,-93.9,-290.5,-325.0,-501.7,681.5,-76.4,-338.4,-140.7,-210.6,-154.0,-193.2,-2.4,-40.8,45.9,-117.5,0,0,2076,0,223,0,
1.1533,-118.5,-11.4,-143.1,-191.7,-308.5,-258.6,-186.8,-145.7,-102.3,-301.3,-336.6,-512.5,675.8,-81.5,-336.6,-119.4,-210.6,-169.5,-204.3,-2.4,-44.7,41.7,-125.6,0,0,2082,0,224,0,
1.1567,-113.7,-9.0,-141.0,-183.9,-304.6,-255.6,-186.8,-140.0,-93.9,-299.5,-331.6,-505.9,670.7,-92.3,-344.1,-130.2,-209.7,-164.7,-202.5,-2.4,-41.4,49.5,-121.7,0,0,2088,0,225,0,
1.1600,-112.5,-9.9,-141.9,-180.3,-305.2,-257.7,-188.0,-143.3,-98.4,-302.2,-336.3,-505.6,671.3,-88.1,-335.1,-124.5,-209.4,-164.4,-204.0,-2.1,-45.6,57.6,-120.2,0,0,2094,0,226,0,
1.1633,-112.8,-10.8,-144.3,-183.3,-307.0,-261.6,-189.1,-146.9,-101.4,-301.0,-337.5,-501.7,673.4,-82.4,-338.4,-141.0,-208.5,-164.7,-207.0,-2.4,-45.6,52.8,-125.3,0,0,2100,0,227,0,
1.1667,-117.3,-6.6,-139.5,-179.4,-300.7,-255.0,-186.8,-140.6,-82.5,-296.2,-330.7,-505.9,665.3,-93.2,-336.6,-137.4,-207.9,-157.3,-194.7,-2.1,-40.5,57.0,-120.8,0,0,2106,0,228,0,
1.1700,-109.5,-2.7,-132.9,-177.0,-301.6,-255.9,-179.9,-139.4,-81.9,-294.1,-329.8,-509.5,664.1,-88.7,-330.0,-138.0,-208.8,-153.4,-190.6,-2.4,-39.0,58.5,-111.8,0,0,2112,0,229,0,
1.1733,-109.2,-0.3,-133.2,-171.0,-295.9,-248.7,-177.5,-136.7,-88.8,-285.5,-325.6,-497.8,669.5,-83.0,-320.4,-140.7,-208.5,-146.5,-190.9,-2.4,-30.9,66.3,-110.0,0,0,2118,0,230,0,
1.1767,-110.4,-5.1,-132.0,-175.2,-297.7,-252.9,-178.7,-138.5,-88.8,-287.6,-325.9,-493.0,677.9,-89.3,-332.1,-135.9,-210.0,-146.5,-193.5,-2.4,-33.6,65.7,-110.0,0,0,2124,0,231,0,
1.1800,-105.3,-2.1,-132.3,-174.9,-296.2,-251.1,-178.1,-134.9,-83.4,-288.2,-323.2,-490.9,686.8,-81.2,-335.4,-133.8,-205.8,-147.4,-186.4,-2.1,-29.4,61.8,-106.4,0,0,2130,0,232,0,
1.1833,-106.5,0.0,-125.4,-168.6,-293.8,-249.9,-176.0,-131.9,-81.0,-281.9,-319.9,-495.4,682.0,-87.2,-334.8,-140.4,-209.1,-142.0,-181.9,-2.4,-31.5,56.7,-108.2,0,0,2136,0,233,0,
1.1867,-111.0,-3.9,-132.9,-175.8,-294.1,-249.0,-180.2,-136.7,-81.9,-287.6,-325.3,-504.7,677.9,-84.2,-330.9,-123.9,-204.3,-151.6,-185.2,-2.4,-27.0,63.0,-111.8,0,0,2142,0,234,0,
1.1900,-108.6,0.0,-127.5,-172.8,-289.6,-250.2,-177.5,-137.3,-86.4,-288.7,-321.7,-492.4,674.3,-86.6,-336.6,-142.2,-206.7,-148.6,-184.3,-2.7,-29.1,68.7,-108.8,0,0,2148,0,235,0,
1.1933,-106.2,0.9,-128.7,-173.7,-289.9,-247.2,-179.6,-132.2,-84.9,-284.9,-322.6,-496.6,676.1,-83.9,-339.9,-141.0,-202.2,-148.0,-180.7,-2.4,-26.4,57.9,-102.8,0,0,2154,0,236,0,
1.1967,-107.1,-0.6,-126.6,-173.7,-291.4,-246.0,-176.6,-134.0,-91.2,-287.3,-325.0,-488.5,677.6,-82.7,-327.0,-136.5,-201.6,-144.4,-187.3,-2.1,-36.0,68.4,-103.4,0,0,2160,0,237,0,
1.2000,-106.2,-2.4,-129.0,-173.7,-292.0,-249.0,-178.7,-132.5,-82.8,-286.7,-321.4,-492.4,679.7,-78.5,-334.8,-138.6,-195.0,-142.6,-186.1,-2.1,-23.7,66.9,-107.0,0,0,2166,0,238,0,
1.2033,-105.3,3.6,-119.4,-165.0,-283.3,-243.9,-172.1,-125.9,-72.3,-273.5,-313.3,-481.3,677.9,-77.6,-339.0,-139.5,-194.7,-135.1,-178.3,-2.4,-21.9,66.3,-98.0,0,0,2172,0,239,0,
1.2067,-107.1,6.3,-120.3,-164.1,-285.1,-237.6,-169.4,-125.9,-71.7,-279.5,-316.9,-484.9,678.8,-73.4,-334.5,-138.9,-197.1,-137.2,-180.1,-2.1,-27.3,63.3,-99.8,0,0,2178,0,240,0,
1.2100,-103.2,9.9,-120.3,-163.5,-280.6,-241.5,-169.4,-126.8,-71.1,-277.4,-314.5,-490.0,682.9,-76.1,-325.8,-136.2,-197.7,-135.4,-181.0,-2.4,-31.2,53.4,-95.6,0,0,2184,0,241,0,
1.2133,-100.8,10.8,-118.5,-161.7,-281.2,-238.5,-171.5,-125.3,-74.1,-275.0,-312.4,-487.3,685.3,-71.0,-329.1,-139.2,-197.7,-133.6,-173.2,-2.1,-21.9,55.2,-104.3,0,0,2190,0,242,0,
1.2167,-102.6,2.1,-124.5,-171.3,-285.4,-247.2,-176.9,-130.4,-79.5,-281.9,-319.3,-489.1,681.5,-71.9,-329.1,-137.4,-197.7,-147.4,-177.7,-2.4,-29.1,57.6,-102.8,0,0,2196,0,243,0,
1.2200,-109.5,-8.1,-132.0,-176.1,-291.1,-249.0,-177.5,-133.4,-101.1,-296.8,-331.0,-508.0,671.3,-76.1,-326.4,-132.3,-193.5,-168.0,-190.0,-2.7,-30.3,64.2,-113.0,0,0,2202,0,244,0,
1.2233,-112.5,-18.0,-149.7,-189.0,-301.9,-251.4,-178.7,-137.6,-105.6,-335.2,-361.2,-517.0,677.0,-75.8,-327.6,-141.0,-195.6,-200.3,-211.8,-2.4,-47.4,68.4,-120.5,0,0,2208,0,245,0,
1.2267,-108.9,-8.4,-140.4,-183.3,-295.6,-250.2,-179.6,-134.9,-96.3,-326.5,-361.2,-509.5,670.4,-81.8,-334.8,-141.0,-198.6,-184.5,-211.8,-2.7,-43.5,50.1,-112.4,0,0,2214,0,246,0,
1.2300,-103.2,0.0,-119.1,-164.4,-277.3,-241.2,-176.3,-129.8,-77.7,-258.5,-300.8,-494.8,680.0,-77.3,-330.6,-139.5,-198.3,-123.5,-173.5,-2.4,-29.7,63.3,-98.6,0,0,2220,0,247,0,
1.2333,-108.3,-3.3,-117.1,-162.6,-280.3,-244.5,-181.7,-129.8,-84.0,-250.7,-293.6,-497.5,675.2,-85.1,-336.9,-144.3,-207.3,-115.4,-167.9,-2.4,-30.9,64.2,-113.0,0,0,2226,0,248,0,
1.2367,-102.9,-1.5,-120.0,-168.6,-286.0,-250.5,-180.2,-131.0,-88.8,-261.8,-306.7,-491.5,680.0,-77.6,-334.2,-144.0,-213.9,-126.5,-185.5,-2.4,-42.6,65.1,-108.5,0,0,2232,0,249,0,
1.2400,-109.8,-5.1,-121.8,-171.9,-290.8,-256.2,-183.8,-135.5,-92.4,-263.0,-308.8,-496.9,666.8,-83.9,-341.1,-138.0,-217.5,-124.7,-189.1,-2.1,-43.2,61.2,-116.0,0,0,2238,0,250,0,
1.2433,-92.4,6.0,-111.1,-159.6,-280.9,-245.1,-171.5,-125.0,-76.8,-236.3,-288.2,-487.0,688.3,-67.7,-319.2,-138.9,-216.0,-98.7,-176.8,-2.4,-39.3,78.9,-106.1,0,0,2244,0,251,0,
1.2467,-100.8,1.8,-113.2,-161.1,-285.4,-249.9,-179.3,-132.8,-86.4,-235.4,-290.9,-479.8,678.5,-74.3,-336.9,-137.7,-218.4,-98.1,-179.5,-2.1,-48.9,69.6,-113.3,0,0,2250,0,252,0,
1.2500,-103.5,0.6,-115.0,-162.6,-285.1,-248.4,-177.2,-128.6,-84.6,-237.5,-296.3,-484.3,671.0,-76.4,-334.5,-136.5,-219.9,-97.8,-187.6,-2.1,-47.1,66.6,-117.8,0,0,2256,0,253,0,
1.2533,-107.4,2.1,-112.0,-164.4,-284.2,-248.4,-183.2,-131.6,-93.9,-230.6,-288.5,-490.3,669.2,-79.7,-340.2,-135.3,-219.6,-89.7,-183.7,-2.1,-53.1,65.7,-120.5,0,0,2262,0,254,0,
1.2567,-108.6,-0.9,-106.9,-161.4,-285.1,-253.8,-181.7,-133.1,-91.5,-220.8,-281.3,-497.5,671.0,-83.3,-343.8,-135.6,-217.2,-78.0,-185.2,-2.1,-55.2,65.4,-119.0,0,0,2268,0,255,0,
1.2600,-108.0,5.1,-102.4,-159.0,-283.0,-255.0,-182.6,-134.0,-93.3,-207.3,-272.1,-497.2,677.3,-82.1,-341.7,-134.1,-215.4,-66.7,-178.6,-2.4,-54.3,62.7,-120.8,0,0,2274,0,0,0,
1.2633,-104.7,7.5,-102.7,-160.2,-286.9,-253.8,-182.3,-131.6,-102.0,-209.7,-274.5,-487.9,677.9,-80.6,-336.6,-132.3,-210.6,-71.5,-188.8,-2.1,-62.4,67.2,-122.3,0,0,2280,0,1,0,
1.2667,-99.6,6.0,-105.4,-161.1,-290.2,-255.3,-181.1,-131.9,-101.7,-218.1,-286.4,-493.0,684.4,-77.9,-338.4,-136.2,-204.9,-77.7,-204.9,-2.4,-69.0,64.8,-132.5,0,0,2286,0,2,0,
1.2700,-101.7,2.4,-106.0,-162.9,-289.3,-252.6,-181.7,-131.6,-102.6,-229.7,-299.9,-505.9,686.2,-75.8,-333.9,-135.0,-201.3,-82.5,-215.9,-2.4,-74.4,64.2,-132.2,0,0,2292,0,3,0,
1.2733,-99.9,5.7,-103.3,-157.8,-283.0,-246.0,-180.5,-131.0,-79.8,-214.5,-288.2,-501.1,680.3,-82.4,-341.7,-139.8,-200.4,-63.1,-200.1,-2.4,-52.5,64.8,-122.9,0,0,2298,0,4,0,
1.2767,-101.4,6.9,-102.4,-156.9,-284.2,-248.7,-182.3,-132.8,-88.2,-204.9,-275.9,-485.2,678.2,-82.7,-340.8,-138.0,-200.7,-60.1,-194.4,-2.4,-49.8,59.1,-122.0,0,0,2304,0,5,0,
1.2800,-101.1,-1.2,-108.4,-159.9,-283.9,-249.6,-179.9,-135.5,-96.3,-217.2,-284.9,-483.1,683.2,-81.5,-336.3,-136.5,-203.1,-74.7,-197.7,-2.1,-58.2,58.8,-122.6,0,0,2310,0,6,0,
1.2833,-103.5,0.6,-110.8,-161.1,-290.5,-251.1,-182.9,-135.2,-96.9,-227.0,-293.6,-489.1,678.5,-78.2,-334.2,-132.6,-203.1,-85.8,-203.4,-2.4,-60.6,51.9,-119.9,0,0,2316,0,7,0,
1.2867,-106.5,0.0,-112.0,-161.7,-291.7,-253.8,-178.7,-134.6,-98.7,-233.6,-302.9,-495.4,678.5,-73.1,-327.6,-133.2,-205.5,-88.5,-210.3,-2.1,-63.6,57.9,-122.3,0,0,2322,0,8,0,
1.2900,-106.2,6.0,-105.4,-157.2,-287.5,-249.9,-180.2,-129.2,-89.7,-230.6,-302.0,-490.6,678.2,-77.6,-339.3,-140.4,-201.9,-79.8,-208.5,-2.4,-58.8,49.8,-122.9,0,0,2328,0,9,0,
1.2933,-107.4,5.7,-104.5,-156.9,-289.9,-253.2,-182.0,-125.6,-88.8,-238.1,-309.7,-496.3,679.4,-74.0,-339.3,-135.6,-202.8,-89.7,-212.7,-2.1,-59.1,53.7,-126.8,0,0,2334,0,10,0,
1.2967,-107.7,8.1,-108.7,-162.0,-292.6,-255.9,-186.5,-126.2,-91.8,-238.7,-313.6,-483.4,671.6,-72.2,-336.9,-136.2,-201.6,-93.3,-218.6,-2.4,-60.9,51.0,-128.6,0,0,2340,0,11,0,
1.3000,-105.3,7.8,-109.6,-160.8,-295.3,-257.4,-184.7,-128.0,-94.2,-242.6,-317.2,-481.6,667.7,-65.0,-332.1,-127.2,-203.1,-95.7,-221.9,-2.1,-69.6,62.1,-138.8,0,0,2346,0,12,0,
1.3033,-107.1,6.9,-110.8,-162.0,-292.3,-259.5,-180.5,-128.3,-87.0,-244.4,-314.8,-491.5,659.6,-75.8,-337.5,-133.5,-201.9,-96.9,-216.8,-2.1,-61.2,68.1,-134.0,0,0,2352,0,13,0,
1.3067,-109.8,2.1,-112.9,-165.6,-299.2,-265.5,-186.5,-132.2,-87.0,-248.9,-323.2,-506.5,661.4,-69.5,-339.3,-135.9,-203.7,-99.6,-228.5,-2.4,-66.6,56.7,-130.4,0,0,2358,0,14,0,
1.3100,-106.5,9.0,-109.6,-162.9,-293.2,-257.7,-182.6,-129.2,-90.3,-248.9,-319.6,-502.0,667.4,-80.3,-348.0,-138.3,-200.7,-98.4,-219.5,-2.4,-65.4,67.5,-127.4,0,0,2364,0,15,0,
1.3133,-98.4,9.6,-106.9,-161.4,-292.6,-255.0,-179.0,-123.8,-94.2,-245.0,-317.8,-487.6,680.9,-64.4,-332.4,-127.8,-201.6,-96.0,-218.9,-2.4,-60.6,72.6,-127.4,0,0,2370,0,16,0,
1.3167,-105.6,-1.2,-112.6,-164.1,-294.4,-258.9,-187.1,-131.6,-101.4,-245.0,-319.0,-496.6,672.2,-76.7,-334.2,-136.5,-202.5,-96.0,-219.2,-2.7,-65.1,64.2,-133.1,0,0,2376,0,17,0,
1.3200,-98.4,3.6,-109.0,-162.3,-294.7,-259.5,-187.4,-127.7,-93.3,-249.2,-321.4,-493.9,675.8,-75.5,-335.4,-136.2,-202.5,-97.8,-218.6,-2.1,-63.9,68.7,-128.3,0,0,2382,0,18,0,
1.3233,-104.4,3.3,-109.3,-162.6,-296.5,-257.7,-187.1,-130.1,-92.7,-250.1,-317.8,-505.0,675.5,-74.0,-335.1,-129.6,-203.4,-94.5,-217.7,-2.4,-60.3,69.6,-128.9,0,0,2388,0,19,0,
1.3267,-103.8,6.3,-109.6,-162.9,-299.2,-259.8,-183.2,-128.9,-90.0,-251.0,-323.8,-488.2,676.4,-69.2,-330.6,-129.3,-203.4,-98.7,-223.1,-2.7,-61.8,75.3,-127.4,0,0,2394,0,20,0,
1.3300,-98.1,6.9,-107.2,-159.9,-295.9,-255.3,-182.3,-126.8,-96.9,-248.9,-318.7,-472.9,682.6,-70.4,-328.8,-144.0,-197.1,-95.4,-217.7,-2.1,-47.7,69.0,-126.5,0,0,2400,0,21,0,
1.3333,-101.7,6.0,-107.8,-158.7,-295.3,-255.9,-185.6,-124.7,-93.9,-250.1,-324.4,-472.3,680.9,-70.1,-335.7,-130.2,-162.6,-94.8,-217.1,-2.4,-58.2,61.5,-122.0,0,0,2406,0,22,0,
1.3367,-102.9,2.4,-112.9,-165.9,-298.3,-260.7,-187.1,-131.0,-96.0,-252.2,-328.6,-476.8,681.2,-66.5,-329.4,-136.8,-86.1,-97.8,-221.9,-2.1,-60.0,64.2,-128.9,0,0,2412,0,23,0,
1.3400,-105.6,3.6,-115.9,-165.9,-299.5,-261.9,-185.9,-129.8,-93.9,-250.7,-325.6,-480.7,681.2,-66.8,-331.2,-137.1,-5.1,-96.0,-217.7,-1.8,-57.3,60.0,-126.8,0,0,2418,0,24,0,
1.3433,-105.9,3.9,-117.4,-165.9,-295.3,-255.3,-182.0,-130.1,-96.3,-256.4,-327.4,-483.7,675.5,-67.7,-330.0,-131.4,-11.7,-105.5,-216.8,-2.4,-59.1,65.1,-122.3,0,0,2424,0,25,0,
1.3467,-104.1,2.7,-118.8,-170.4,-299.5,-258.6,-183.8,-133.7,-87.3,-258.8,-333.9,-474.7,680.3,-66.2,-328.2,-132.3,-155.1,-107.0,-225.8,-2.7,-60.9,63.0,-120.2,0,0,2430,0,26,0,
1.3500,-102.0,1.5,-121.2,-171.9,-301.0,-260.4,-186.2,-132.5,-82.8,-256.1,-331.0,-478.0,672.5,-62.9,-327.6,-126.9,-371.1,-105.2,-227.9,-2.1,-57.9,68.7,-120.2,0,0,2436,0,27,0,
1.3533,-106.2,-1.5,-126.6,-179.1,-309.7,-264.3,-190.0,-133.4,-92.1,-262.4,-340.2,-490.9,678.2,-62.0,-327.6,-130.5,-670.2,-108.8,-233.0,-2.7,-72.9,62.4,-126.5,0,0,2442,0,28,0,
1.3567,-106.2,-2.1,-128.1,-179.7,-311.5,-267.0,-186.8,-134.0,-90.3,-271.1,-339.3,-496.0,680.9,-61.1,-329.7,-133.2,-972.3,-116.6,-236.0,-2.1,-71.7,60.0,-125.3,0,0,2448,0,29,0,
1.3600,-105.0,-5.4,-127.2,-182.4,-307.3,-265.2,-189.7,-137.0,-94.5,-271.4,-341.4,-484.3,683.2,-57.8,-323.7,-133.8,-1225.2,-116.3,-239.8,-2.1,-82.8,56.4,-129.5,0,0,2454,0,30,0,
1.3633,-109.2,-10.5,-133.2,-185.4,-317.8,-271.5,-193.9,-143.6,-96.3,-275.9,-348.9,-492.7,680.9,-58.7,-323.4,-131.7,-1303.8,-121.1,-244.6,-2.4,-84.6,62.7,-130.1,0,0,2460,0,31,0,
1.3667,-107.4,-4.2,-125.7,-184.2,-314.8,-267.3,-192.4,-143.3,-90.0,-269.3,-344.7,-482.8,682.6,-58.4,-325.2,-129.9,-1277.4,-113.0,-241.6,-2.4,-84.0,67.5,-134.9,0,0,2466,0,32,0,
1.3700,-110.1,-7.2,-133.8,-184.2,-311.8,-264.6,-188.3,-142.7,-92.7,-271.4,-342.0,-492.1,681.2,-53.0,-313.5,-137.7,-1014.6,-120.2,-237.5,-2.4,-74.1,73.2,-125.9,0,0,2472,0,33,0,
1.3733,-106.8,2.1,-128.4,-180.6,-311.5,-260.7,-189.7,-140.3,-95.7,-270.5,-342.9,-468.1,684.4,-55.4,-310.2,-135.0,-750.0,-113.3,-236.9,-2.4,-68.1,74.1,-125.6,0,0,2478,0,34,0,
1.3767,-101.4,-1.8,-131.1,-179.1,-309.7,-261.6,-188.3,-142.7,-91.8,-270.2,-338.7,-483.7,684.4,-50.3,-321.6,-135.0,-496.2,-118.7,-232.1,-2.4,-53.4,71.7,-121.4,0,0,2484,0,35,0,
1.3800,-98.7,6.6,-120.6,-175.8,-307.6,-252.9,-182.6,-141.2,-95.4,-262.7,-336.3,-481.0,682.6,-57.5,-319.2,-134.7,-381.3,-107.9,-230.0,-2.4,-50.7,84.3,-111.5,0,0,2490,0,36,0,
1.3833,-96.6,7.8,-117.7,-168.6,-298.3,-248.7,-177.5,-134.9,-90.6,-256.7,-328.3,-480.1,671.3,-66.8,-321.0,-138.0,-397.5,-103.4,-222.2,-2.7,-46.2,86.1,-104.9,0,0,2496,0,37,0,
1.3867,-100.5,4.2,-121.5,-170.1,-295.3,-246.0,-179.6,-133.4,-77.7,-256.1,-321.7,-478.3,671.3,-60.2,-321.6,-141.0,-387.9,-108.2,-217.1,-2.1,-48.9,74.4,-102.5,0,0,2502,0,38,0,
1.3900,-100.8,10.5,-120.6,-169.8,-298.0,-250.2,-175.7,-134.0,-86.4,-255.5,-327.1,-473.2,683.2,-57.5,-315.3,-141.3,-350.1,-105.8,-220.7,-2.1,-54.3,82.2,-106.7,0,0,2508,0,39,0,
1.3933,-98.1,9.0,-120.9,-171.6,-296.5,-250.5,-177.5,-131.0,-89.1,-258.8,-328.3,-483.7,697.6,-46.1,-312.3,-140.1,-296.4,-110.3,-217.7,-2.4,-44.7,83.4,-102.5,0,0,2514,0,40,0,
1.3967,-100.2,9.6,-119.1,-173.4,-300.4,-254.7,-180.2,-131.3,-86.7,-257.0,-330.4,-481.6,692.2,-50.3,-319.5,-138.0,-264.9,-107.9,-224.9,-2.4,-48.3,78.6,-113.0,0,0,2520,0,41,0,
1.4000,-97.5,13.5,-118.3,-171.0,-297.1,-254.4,-182.0,-129.8,-86.4,-259.1,-333.0,-475.3,692.8,-46.7,-314.4,-140.7,-247.5,-105.8,-229.1,-2.4,-54.6,80.7,-108.8,0,0,2526,0,42,0,
1.4033,-92.1,15.6,-115.9,-166.5,-293.8,-252.9,-182.3,-129.2,-81.3,-254.3,-324.7,-464.2,696.1,-50.3,-312.3,-138.9,-234.3,-103.7,-220.4,-2.4,-48.9,91.5,-110.0,0,0,2532,0,43,0,
1.4067,-92.7,16.8,-113.5,-168.0,-293.2,-252.9,-182.0,-127.4,-83.4,-254.6,-325.3,-465.1,693.7,-50.9,-315.9,-140.1,-224.4,-102.2,-219.5,-2.4,-46.2,90.0,-110.0,0,0,2538,0,44,0,
1.4100,-97.5,9.6,-118.8,-175.2,-301.0,-258.9,-184.1,-132.8,-88.2,-266.6,-335.7,-477.1,692.5,-54.2,-321.0,-140.1,-214.2,-108.5,-225.5,-2.7,-55.8,85.5,-117.5,0,0,2544,0,45,0,
1.4133,-98.4,5.1,-122.4,-174.0,-301.9,-259.5,-182.0,-136.1,-94.5,-265.4,-333.3,-480.4,681.5,-62.0,-317.4,-142.8,-209.1,-107.9,-226.4,-2.1,-60.0,91.2,-112.1,0,0,2550,0,46,0,
1.4167,-98.1,7.5,-116.2,-168.6,-299.2,-257.7,-180.8,-133.4,-84.3,-257.9,-332.2,-473.5,675.8,-59.3,-323.7,-135.0,-203.7,-102.8,-225.5,-2.4,-58.8,76.2,-113.9,0,0,2556,0,47,0,
1.4200,-95.7,11.7,-110.8,-166.2,-296.2,-256.5,-183.5,-131.3,-90.0,-258.8,-331.0,-466.0,684.4,-57.5,-321.3,-139.2,-201.3,-104.0,-225.8,-2.4,-52.2,78.0,-115.1,0,0,2562,0,48,0,
1.4233,-98.4,7.2,-117.4,-171.0,-300.1,-260.7,-184.4,-135.2,-91.5,-268.7,-340.8,-482.2,688.9,-61.4,-322.8,-138.9,-199.5,-116.9,-232.1,-2.4,-56.7,76.5,-118.1,0,0,2568,0,49,0,
1.4267,-99.9,6.0,-120.3,-169.5,-300.4,-261.6,-182.6,-134.6,-90.6,-264.2,-336.0,-486.4,686.5,-56.9,-321.0,-142.8,-195.6,-111.5,-228.5,-2.1,-53.1,81.6,-119.9,0,0,2574,0,50,0,
1.4300,-99.6,9.9,-115.9,-170.4,-297.1,-256.5,-182.3,-129.8,-81.9,-264.8,-340.5,-481.3,680.6,-58.4,-318.6,-144.3,-195.9,-105.8,-233.6,-2.1,-52.5,77.1,-116.3,0,0,2580,0,51,0,
1.4333,-97.8,6.9,-118.0,-168.9,-301.3,-255.6,-182.6,-129.5,-93.3,-263.0,-338.4,-481.9,684.4,-60.2,-324.0,-139.8,-193.8,-111.2,-230.0,-2.1,-50.4,74.4,-116.6,0,0,2586,0,52,0,
1.4367,-93.3,7.8,-118.3,-169.5,-298.9,-256.5,-183.5,-128.0,-103.2,-262.1,-335.1,-490.0,690.1,-64.4,-324.6,-139.8,-193.8,-102.2,-226.7,-2.4,-58.5,69.0,-126.5,0,0,2592,0,53,0,
1.4400,-92.7,6.6,-115.6,-168.3,-299.8,-251.4,-179.0,-126.2,-96.6,-260.0,-331.3,-493.6,690.7,-60.5,-317.1,-134.4,-194.7,-107.0,-224.6,-2.4,-51.3,74.7,-129.5,0,0,2598,0,54,0,
1.4433,-90.0,11.4,-106.3,-160.2,-293.8,-241.5,-171.2,-121.4,-81.3,-254.6,-325.0,-486.7,689.2,-55.4,-313.8,-136.5,-195.0,-101.0,-221.0,-2.7,-54.9,79.8,-109.7,0,0,2604,0,55,0,
1.4467,-94.8,5.4,-118.5,-172.5,-302.8,-252.9,-178.1,-131.9,-91.2,-266.3,-337.5,-499.3,682.9,-57.5,-315.3,-141.3,-196.5,-111.5,-231.5,-2.1,-58.5,69.3,-120.8,0,0,2610,0,56,0,
1.4500,-92.4,6.3,-119.1,-177.9,-305.5,-259.5,-185.0,-132.2,-93.0,-266.3,-341.1,-477.4,688.3,-58.1,-323.4,-141.0,-192.9,-110.0,-233.3,-2.7,-60.9,78.3,-118.7,0,0,2616,0,57,0,
1.4533,-91.5,8.4,-109.0,-166.2,-298.9,-253.5,-180.2,-127.7,-86.4,-259.1,-332.4,-471.4,674.0,-62.3,-318.3,-134.7,-196.2,-103.7,-224.3,-2.1,-47.7,76.8,-110.0,0,0,2622,0,58,0,
1.4567,-90.9,11.1,-107.8,-168.3,-301.0,-255.3,-184.1,-130.4,-84.6,-258.8,-338.1,-480.1,680.6,-61.4,-319.2,-139.2,-195.9,-104.0,-227.0,-2.7,-52.5,69.3,-118.4,0,0,2628,0,59,0,
1.4600,-94.2,7.8,-112.3,-170.4,-303.7,-257.4,-182.6,-128.6,-107.1,-265.7,-340.2,-488.8,682.0,-57.5,-309.6,-135.0,-198.9,-107.6,-237.2,-2.1,-65.1,73.2,-126.2,0,0,2634,0,60,0,
1.4633,-94.2,5.7,-115.9,-171.9,-302.8,-253.8,-180.8,-127.4,-90.9,-266.3,-338.1,-497.5,684.1,-60.2,-310.2,-145.8,-196.2,-115.4,-237.5,-2.4,-60.6,77.7,-124.4,0,0,2640,0,61,0,
1.4667,-91.2,13.2,-105.4,-162.9,-295.0,-248.1,-183.8,-125.3,-80.4,-257.6,-329.2,-481.3,691.0,-65.0,-326.1,-144.0,-198.6,-103.1,-221.0,-2.4,-45.3,71.4,-116.0,0,0,2646,0,62,0,
1.4700,-92.7,15.9,-107.5,-165.9,-296.8,-251.7,-179.9,-129.2,-82.2,-261.2,-330.1,-475.9,691.9,-58.4,-318.0,-150.9,-199.2,-103.1,-222.5,-2.1,-49.8,71.4,-113.0,0,0,2652,0,63,0,
1.4733,-96.3,13.2,-112.0,-167.7,-298.0,-253.2,-187.1,-130.7,-78.6,-263.0,-334.5,-477.7,686.5,-60.8,-319.8,-144.6,-199.2,-101.6,-226.4,-2.4,-48.3,71.4,-110.6,0,0,2658,0,64,0,
1.4767,-93.6,14.7,-110.8,-169.2,-296.5,-252.0,-179.6,-130.7,-82.2,-259.7,-333.0,-477.7,683.5,-64.7,-318.0,-146.4,-201.3,-102.8,-229.4,-2.4,-51.3,72.6,-105.5,0,0,2664,0,65,0,
1.4800,-88.8,12.3,-111.7,-169.2,-298.3,-250.8,-178.4,-130.4,-91.8,-258.8,-336.9,-483.7,685.0,-64.7,-318.0,-143.4,-203.1,-102.5,-232.4,-2.1,-62.4,74.4,-113.3,0,0,2670,0,66,0,
1.4833,-90.3,11.4,-116.2,-174.6,-309.4,-262.5,-179.9,-131.6,-97.2,-278.0,-359.1,-488.5,689.8,-62.6,-313.8,-140.1,-201.6,-118.4,-254.5,-2.7,-67.8,72.3,-122.0,0,0,2676,0,67,0,
1.4867,-83.1,18.6,-110.5,-166.8,-299.5,-251.4,-170.9,-117.8,-76.2,-274.4,-357.9,-474.4,693.4,-53.3,-303.9,-141.0,-206.1,-110.6,-244.9,-2.4,-52.8,81.3,-110.3,0,0,2682,0,68,0,
1.4900,-92.7,14.7,-107.2,-163.8,-291.4,-250.2,-174.8,-123.8,-72.9,-247.1,-322.0,-468.7,680.6,-66.2,-308.1,-134.1,-205.2,-89.1,-209.7,-2.4,-33.9,78.6,-104.9,0,0,2688,0,69,0,
1.4933,-97.2,15.9,-105.7,-160.5,-289.3,-248.7,-176.0,-128.6,-68.7,-228.5,-300.2,-477.1,679.4,-65.0,-310.2,-145.8,-206.4,-79.2,-189.4,-2.4,-31.5,79.2,-99.5,0,0,2694,0,70,0,
1.4967,-97.8,15.6,-110.2,-164.4,-291.4,-255.0,-183.2,-129.5,-87.6,-238.1,-311.2,-486.4,680.0,-67.1,-316.8,-142.5,-208.8,-94.2,-201.6,-2.4,-42.0,63.0,-98.9,0,0,2700,0,71,0,
1.5000,-102.6,10.2,-119.4,-170.1,-295.3,-254.4,-187.1,-130.4,-93.6,-259.1,-330.1,-502.0,684.4,-61.1,-315.3,-137.7,-210.6,-116.6,-217.4,-2.1,-50.4,65.4,-109.4,0,0,2706,0,72,0,
1.5033,-99.6,11.7,-114.4,-166.5,-289.6,-252.3,-183.2,-125.9,-91.8,-257.0,-321.1,-493.3,684.7,-65.6,-313.2,-139.5,-214.8,-112.1,-210.6,-2.1,-42.0,70.8,-115.1,0,0,2712,0,73,0,
1.5067,-96.3,15.3,-109.3,-158.7,-283.3,-252.0,-182.9,-121.7,-81.3,-250.4,-318.1,-478.3,689.5,-65.0,-314.7,-140.7,-213.6,-107.0,-205.5,-2.4,-45.9,68.1,-113.9,0,0,2718,0,74,0,
1.5100,-96.6,12.9,-109.6,-160.5,-283.0,-255.0,-182.3,-121.1,-81.0,-249.8,-315.1,-486.1,683.8,-67.4,-319.2,-143.7,-215.7,-104.9,-200.1,-2.4,-45.0,68.4,-113.6,0,0,2724,0,75,0,
1.5133,-99.9,10.5,-111.4,-161.1,-284.5,-251.7,-181.1,-118.4,-81.6,-251.6,-322.9,-489.1,685.3,-67.7,-324.9,-143.1,-219.0,-109.7,-204.0,-2.1,-48.9,67.8,-118.4,0,0,2730,0,76,0,
1.5167,-93.9,16.5,-108.7,-163.5,-287.8,-252.3,-180.2,-118.4,-90.3,-253.7,-322.6,-469.3,685.9,-67.1,-324.0,-142.5,-221.1,-110.6,-209.7,-2.1,-51.3,69.0,-119.0,0,0,2736,0,77,0,
1.5200,-91.2,12.6,-111.7,-161.1,-288.7,-250.8,-182.6,-119.0,-93.0,-254.6,-326.5,-471.4,691.6,-60.8,-321.3,-141.0,-225.3,-110.0,-209.4,-2.4,-56.1,67.2,-119.9,0,0,2742,0,78,0,
1.5233,-95.7,11.7,-108.7,-159.6,-289.9,-250.5,-185.3,-121.4,-91.2,-253.4,-325.6,-486.4,682.6,-61.7,-319.5,-141.6,-226.5,-106.1,-208.8,-2.1,-51.0,67.8,-117.2,0,0,2748,0,79,0,
1.5267,-96.3,10.2,-107.5,-158.7,-283.6,-248.1,-179.0,-119.0,-83.7,-254.0,-321.4,-489.1,683.2,-63.8,-315.0,-140.4,-229.8,-108.2,-209.1,-2.1,-48.6,68.4,-111.8,0,0,2754,0,80,0,
1.5300,-102.0,8.7,-109.9,-159.3,-286.6,-245.7,-181.1,-116.3,-87.3,-254.3,-325.0,-484.9,674.6,-67.1,-322.5,-141.3,-234.0,-108.5,-214.2,-2.1,-44.7,59.1,-107.6,0,0,2760,0,81,0,
1.5333,-96.6,7.2,-111.1,-161.1,-289.9,-247.5,-176.3,-117.8,-92.4,-258.2,-330.7,-488.5,675.8,-67.1,-321.3,-140.1,-236.7,-113.0,-213.6,-2.4,-51.0,59.1,-106.1,0,0,2766,0,82,0,
1.5367,-94.2,10.2,-110.8,-162.3,-292.9,-249.6,-177.5,-119.3,-96.3,-252.8,-326.5,-493.6,682.6,-66.8,-329.7,-142.8,-237.9,-110.9,-208.2,-2.4,-51.9,50.1,-107.9,0,0,2772,0,83,0,
1.5400,-93.0,6.0,-114.1,-161.7,-291.7,-251.7,-177.8,-120.2,-91.5,-257.6,-328.9,-493.0,679.4,-71.0,-334.5,-136.5,-240.3,-114.5,-212.4,-2.1,-53.4,46.5,-110.6,0,0,2778,0,84,0,
1.5433,-94.5,1.8,-117.1,-167.1,-298.0,-255.0,-176.9,-124.1,-94.5,-259.7,-330.1,-501.1,683.2,-55.4,-329.4,-134.4,-250.2,-117.2,-213.9,-2.4,-52.8,41.7,-109.1,0,0,2784,0,85,0,
1.5467,-95.7,6.0,-115.3,-165.6,-295.3,-251.1,-175.7,-125.0,-90.3,-257.9,-327.7,-493.6,678.2,-65.9,-324.0,-139.5,-250.2,-115.1,-214.8,-2.4,-56.4,51.9,-105.5,0,0,2790,0,86,0,
1.5500,-102.0,6.0,-120.3,-169.5,-296.5,-253.5,-183.8,-127.1,-81.6,-264.8,-331.0,-490.9,671.9,-64.1,-332.4,-140.1,-255.6,-116.6,-212.7,-2.4,-58.8,35.4,-115.1,0,0,2796,0,87,0,
1.5533,-96.6,5.7,-120.3,-168.9,-297.1,-252.6,-181.1,-124.7,-89.7,-263.3,-335.4,-511.0,674.0,-61.7,-321.6,-136.2,-258.6,-118.4,-213.9,-2.1,-42.0,45.3,-115.4,0,0,2802,0,88,0,
1.5567,-96.0,7.2,-119.7,-168.6,-297.4,-248.4,-179.9,-124.1,-96.6,-266.3,-334.2,-505.3,679.7,-66.8,-336.3,-147.0,-262.5,-123.8,-213.9,-2.4,-55.8,51.0,-103.4,0,0,2808,0,89,0,
1.5600,-88.2,13.5,-109.9,-161.7,-288.4,-241.8,-173.9,-118.1,-84.0,-253.4,-322.6,-499.9,688.0,-68.6,-342.0,-140.1,-267.0,-108.5,-204.6,-2.4,-46.2,55.8,-108.5,0,0,2814,0,90,0,
1.5633,-98.4,2.1,-117.1,-163.2,-293.5,-251.7,-180.2,-122.3,-88.8,-262.7,-334.8,-513.7,683.5,-65.9,-335.4,-140.7,-270.0,-118.7,-212.7,-2.1,-55.2,46.5,-111.5,0,0,2820,0,91,0,
1.5667,-95.4,3.6,-115.3,-163.2,-291.7,-250.2,-180.5,-122.0,-88.8,-258.2,-329.5,-511.0,690.7,-68.9,-335.1,-140.1,-274.2,-114.8,-213.3,-2.1,-49.2,36.3,-98.9,0,0,2826,0,92,0,
1.5700,-92.4,3.9,-111.7,-161.1,-287.2,-247.5,-178.4,-122.0,-88.5,-259.4,-327.7,-502.6,680.6,-74.9,-338.1,-134.4,-278.1,-116.0,-214.2,-2.1,-48.6,33.9,-104.6,0,0,2832,0,93,0,
1.5733,-91.2,3.0,-113.2,-159.9,-289.9,-251.4,-181.7,-121.4,-91.8,-260.6,-327.1,-498.4,689.8,-70.4,-342.3,-139.5,-282.0,-119.3,-213.0,-2.7,-54.9,30.0,-113.9,0,0,2838,0,94,0,
1.5767,-99.9,-1.2,-113.5,-158.7,-291.4,-248.4,-183.5,-124.4,-96.6,-259.7,-326.8,-508.3,677.6,-78.8,-345.6,-147.6,-285.6,-116.0,-210.3,-2.1,-50.7,37.8,-109.1,0,0,2844,0,95,0,
1.5800,-97.8,1.5,-114.4,-162.9,-289.6,-249.6,-181.7,-125.3,-93.9,-265.1,-331.0,-505.3,687.4,-75.5,-349.8,-139.8,-289.8,-119.0,-214.5,-2.4,-50.7,36.3,-111.5,0,0,2850,0,96,0,
1.5833,-94.8,4.8,-111.4,-161.1,-290.8,-249.6,-178.4,-127.1,-105.3,-265.4,-331.0,-508.6,691.6,-74.0,-339.9,-141.3,-291.9,-120.2,-216.2,-2.4,-58.8,37.8,-104.6,0,0,2856,0,97,0,
1.5867,-96.0,2.7,-118.0,-165.3,-288.7,-251.1,-182.6,-124.7,-91.2,-268.7,-334.2,-505.3,686.2,-78.5,-350.1,-144.3,-294.3,-123.8,-218.9,-2.1,-55.5,30.3,-109.1,0,0,2862,0,98,0,
1.5900,-93.0,2.4,-115.9,-166.5,-294.7,-254.4,-182.9,-126.2,-82.5,-270.5,-339.0,-508.9,692.8,-70.7,-347.1,-141.6,-298.5,-119.9,-223.4,-2.4,-62.1,37.5,-117.2,0,0,2868,0,99,0,
1.5933,-91.2,0.3,-120.0,-172.8,-294.7,-252.9,-182.9,-128.0,-92.7,-271.1,-343.8,-513.4,695.5,-69.2,-344.1,-142.8,-299.7,-121.4,-227.9,-2.4,-59.7,42.0,-115.1,0,0,2874,0,100,0,
1.5967,-93.0,4.8,-118.8,-174.3,-301.0,-255.6,-183.5,-132.5,-101.7,-275.0,-347.1,-510.4,700.9,-71.3,-346.8,-134.7,-301.2,-120.2,-233.3,-2.4,-65.4,31.2,-117.8,0,0,2880,0,101,0,
1.6000,-94.2,-4.5,-127.2,-179.7,-306.4,-261.3,-189.1,-137.3,-102.0,-278.0,-348.6,-506.8,699.7,-68.3,-347.7,-143.1,-301.8,-133.0,-236.9,-2.7,-69.3,31.2,-119.3,0,0,2886,0,102,0,
1.6033,-98.1,-8.1,-127.5,-178.8,-307.3,-263.1,-186.5,-137.3,-104.1,-278.0,-349.5,-509.5,688.3,-71.0,-344.4,-132.6,-303.3,-132.4,-235.1,-2.4,-60.9,33.3,-123.5,0,0,2892,0,103,0,
1.6067,-84.6,2.7,-118.8,-173.4,-299.8,-253.5,-180.2,-126.5,-92.4,-272.0,-342.9,-495.1,701.5,-58.4,-339.0,-141.3,-300.6,-126.2,-225.2,-2.1,-60.3,39.3,-117.8,0,0,2898,0,104,0,
1.6100,-91.8,-0.3,-122.1,-174.3,-298.0,-251.1,-181.1,-128.0,-90.9,-275.3,-345.0,-505.9,686.8,-66.8,-345.6,-138.9,-296.4,-126.2,-227.6,-2.1,-55.2,44.7,-112.4,0,0,2904,0,105,0,
1.6133,-93.6,-3.6,-128.7,-179.4,-306.4,-259.8,-185.3,-135.2,-91.5,-280.4,-349.8,-514.6,679.7,-70.7,-345.3,-141.6,-288.3,-137.5,-231.2,-2.1,-57.6,44.1,-118.7,0,0,2910,0,106,0,
1.6167,-102.0,-5.7,-129.6,-178.2,-306.4,-259.2,-186.5,-136.4,-107.1,-282.8,-354.0,-521.5,679.4,-75.2,-346.5,-137.7,-281.4,-135.7,-233.3,-2.1,-66.9,44.1,-120.8,0,0,2916,0,107,0,
1.6200,-98.4,-11.7,-136.2,-183.0,-308.2,-260.1,-189.4,-138.2,-120.3,-289.3,-354.6,-524.5,694.3,-73.1,-351.0,-133.8,-273.3,-141.7,-237.5,-2.1,-72.0,39.6,-131.0,0,0,2922,0,108,0,
1.6233,-96.9,-7.8,-132.6,-180.6,-307.0,-256.5,-183.8,-134.3,-113.4,-280.7,-347.4,-519.7,687.7,-82.4,-354.9,-136.5,-265.2,-136.3,-235.1,-2.4,-61.5,53.1,-126.2,0,0,2928,0,109,0,
1.6267,-98.4,-5.1,-131.1,-179.1,-304.9,-253.5,-180.5,-134.3,-101.4,-279.8,-346.5,-517.3,689.8,-80.6,-361.2,-132.6,-258.0,-133.3,-228.2,-2.4,-68.4,44.1,-126.8,0,0,2934,0,110,0,
1.6300,-102.3,-0.9,-135.9,-181.8,-306.4,-252.6,-184.7,-134.6,-111.3,-284.6,-351.0,-518.5,690.4,-82.4,-354.9,-136.8,-249.0,-138.7,-230.0,-2.4,-68.1,27.6,-125.9,0,0,2940,0,111,0,
1.6333,-100.2,-2.7,-128.4,-177.0,-302.5,-249.6,-186.8,-132.8,-105.9,-280.7,-349.5,-514.0,685.0,-86.3,-359.1,-141.3,-241.5,-129.1,-232.1,-2.4,-65.4,29.7,-120.5,0,0,2946,0,112,0,
1.6367,-97.5,-4.2,-127.8,-175.5,-301.9,-247.8,-183.2,-134.6,-105.9,-278.9,-344.1,-516.4,694.6,-77.9,-353.7,-141.9,-234.3,-130.6,-229.1,-2.7,-58.2,38.7,-117.8,0,0,2952,0,113,0,
1.6400,-95.7,-3.0,-127.2,-173.7,-300.1,-250.8,-180.5,-134.3,-102.6,-274.1,-338.1,-514.9,696.1,-81.2,-346.5,-137.4,-231.0,-131.5,-224.9,-1.8,-54.6,46.8,-127.4,0,0,2958,0,114,0,
1.6433,-95.4,0.6,-126.3,-174.3,-303.4,-255.3,-183.8,-134.3,-102.3,-274.7,-338.7,-505.0,699.7,-81.2,-346.8,-142.2,-225.3,-123.2,-228.2,-2.1,-57.0,40.5,-120.8,0,0,2964,0,115,0,
1.6467,-99.3,-1.2,-129.6,-173.7,-298.9,-252.9,-183.2,-133.7,-93.0,-275.3,-341.1,-512.2,687.7,-88.7,-346.8,-140.7,-218.7,-129.7,-225.8,-1.8,-61.2,36.6,-116.9,0,0,2970,0,116,0,
1.6500,-94.2,0.3,-127.5,-173.1,-299.2,-252.9,-179.9,-133.4,-96.9,-274.7,-339.0,-509.8,692.2,-88.7,-346.8,-138.0,-218.4,-130.0,-222.2,-2.4,-51.9,41.7,-113.9,0,0,2976,0,117,0,
1.6533,-94.2,1.2,-125.1,-173.4,-303.4,-255.3,-183.8,-131.9,-99.3,-275.0,-346.8,-512.8,691.0,-91.1,-351.0,-142.5,-215.7,-127.1,-230.6,-2.1,-53.7,43.5,-116.6,0,0,2982,0,118,0,
1.6567,-95.1,-8.1,-131.4,-175.8,-304.0,-257.1,-182.0,-133.4,-101.7,-281.9,-344.1,-514.0,698.8,-84.5,-348.9,-132.9,-213.9,-130.9,-228.5,-2.7,-51.9,45.0,-122.9,0,0,2988,0,119,0,
1.6600,-95.1,-3.3,-127.8,-173.4,-304.9,-255.3,-179.6,-132.8,-108.9,-276.2,-343.5,-510.1,697.3,-90.2,-347.4,-139.8,-212.7,-130.9,-227.9,-2.4,-56.4,45.3,-114.2,0,0,2994,0,120,0,
1.6633,-90.0,2.4,-121.2,-171.6,-302.5,-247.5,-172.4,-127.1,-95.4,-275.6,-338.1,-511.9,700.9,-76.7,-338.1,-137.4,-212.7,-125.0,-225.5,-1.8,-58.8,44.7,-108.2,0,0,3000,0,121,0,
1.6667,-99.3,-4.2,-129.6,-180.6,-310.6,-260.1,-181.1,-138.5,-102.3,-281.6,-344.7,-525.1,688.3,-92.3,-348.9,-139.5,-207.0,-129.7,-233.3,-2.1,-59.1,42.3,-117.8,0,0,3006,0,122,0,
1.6700,-99.6,2.4,-121.2,-174.3,-306.4,-257.1,-179.0,-135.8,-98.4,-272.6,-333.3,-518.2,694.9,-89.9,-351.6,-137.4,-207.9,-124.1,-220.1,-2.4,-55.8,41.1,-119.9,0,0,3012,0,123,0,
1.6733,-102.0,0.0,-125.1,-172.2,-304.0,-255.3,-177.5,-138.2,-98.7,-272.0,-338.1,-512.2,693.4,-89.9,-348.0,-140.7,-207.6,-122.9,-222.5,-2.4,-54.3,50.4,-112.7,0,0,3018,0,124,0,
1.6767,-100.5,-1.2,-128.4,-176.4,-309.4,-259.5,-179.6,-143.6,-102.6,-270.8,-337.8,-518.5,693.7,-85.4,-353.1,-137.1,-207.3,-121.1,-222.5,-2.4,-54.6,40.2,-116.0,0,0,3024,0,125,0,
1.6800,-98.1,0.0,-125.4,-174.0,-302.8,-255.9,-178.4,-139.1,-97.5,-268.7,-332.7,-518.5,687.1,-81.5,-345.0,-138.9,-204.9,-116.9,-218.0,-2.1,-47.4,45.0,-113.0,0,0,3030,0,126,0,
1.6833,-98.4,0.9,-124.5,-175.5,-304.0,-259.5,-182.6,-143.6,-98.4,-271.4,-336.6,-517.9,691.3,-86.6,-345.6,-136.5,-205.8,-121.4,-221.9,-2.4,-52.2,41.1,-118.4,0,0,3036,0,127,0,
1.6867,-100.2,0.6,-129.6,-175.8,-303.7,-258.6,-181.7,-143.3,-91.2,-272.9,-340.8,-522.4,684.4,-80.0,-346.5,-135.6,-204.6,-125.9,-221.3,-2.4,-47.7,46.2,-116.3,0,0,3042,0,128,0,
1.6900,-109.2,-4.8,-129.9,-179.1,-304.9,-259.2,-178.1,-142.7,-88.5,-271.1,-339.6,-535.0,680.0,-83.6,-345.0,-137.4,-207.0,-123.2,-219.5,-2.1,-47.7,47.1,-115.7,0,0,3048,0,129,0,
1.6933,-106.8,-2.7,-126.3,-176.7,-303.7,-258.9,-179.0,-138.2,-87.6,-268.4,-337.5,-524.2,694.0,-80.6,-348.0,-139.5,-204.9,-123.2,-221.6,-2.4,-46.8,40.5,-111.8,0,0,3054,0,130,0,
1.6967,-107.4,-4.2,-133.2,-181.8,-309.7,-265.5,-182.3,-142.7,-108.6,-281.3,-350.4,-519.4,701.2,-81.8,-346.8,-135.6,-205.8,-134.8,-231.2,-1.8,-58.2,36.0,-120.5,0,0,3060,0,131,0,
1.7000,-100.2,-3.9,-131.1,-182.7,-312.7,-267.0,-181.7,-143.6,-105.0,-276.5,-348.9,-516.7,701.8,-79.7,-345.6,-135.3,-206.4,-131.5,-230.9,-2.4,-60.0,35.1,-124.4,0,0,3066,0,132,0,
1.7033,-98.7,-2.4,-131.7,-177.6,-306.1,-264.3,-182.3,-140.9,-98.4,-272.6,-336.6,-505.3,698.8,-82.7,-351.3,-137.1,-205.8,-131.5,-221.3,-2.4,-55.5,35.1,-118.7,0,0,3072,0,133,0,
1.7067,-99.3,-5.7,-138.0,-185.1,-312.1,-263.7,-183.2,-145.7,-93.3,-280.4,-346.8,-506.2,699.7,-78.2,-346.8,-139.2,-204.0,-138.4,-223.7,-2.7,-58.8,35.1,-125.9,0,0,3078,0,134,0,
1.7100,-106.5,-7.8,-134.1,-185.4,-311.8,-264.0,-188.3,-146.9,-99.9,-277.1,-343.8,-509.2,692.8,-84.8,-352.5,-137.1,-206.4,-133.6,-219.8,-2.1,-47.1,30.0,-127.7,0,0,3084,0,135,0,
1.7133,-101.7,-1.5,-129.9,-175.8,-306.1,-259.5,-180.8,-139.4,-91.5,-266.3,-334.5,-515.2,694.6,-77.6,-348.0,-140.7,-204.6,-126.5,-212.4,-2.4,-43.5,33.9,-117.5,0,0,3090,0,136,0,
1.7167,-103.5,1.2,-127.5,-180.9,-308.8,-261.9,-185.9,-143.3,-96.9,-272.6,-339.0,-510.7,699.4,-74.3,-346.8,-134.1,-205.8,-129.4,-217.4,-2.1,-49.2,42.3,-122.3,0,0,3096,0,137,0,
1.7200,-111.6,-9.0,-136.2,-189.0,-315.7,-267.9,-189.4,-147.5,-103.5,-284.6,-347.7,-519.4,692.2,-83.3,-355.2,-131.1,-202.5,-138.4,-225.2,-2.1,-59.1,34.8,-120.5,0,0,3102,0,138,0,
1.7233,-108.6,-4.8,-133.2,-180.3,-310.0,-260.1,-182.3,-145.7,-105.0,-276.5,-342.9,-516.1,689.8,-81.5,-348.3,-143.4,-205.5,-131.2,-218.6,-2.7,-55.5,44.1,-123.8,0,0,3108,0,139,0,
1.7267,-102.9,-1.2,-129.3,-178.2,-312.4,-263.1,-179.3,-143.3,-93.3,-275.9,-347.1,-516.7,695.2,-77.3,-343.2,-142.5,-202.2,-134.8,-228.5,-2.1,-57.0,34.2,-126.5,0,0,3114,0,140,0,
1.7300,-102.9,0.3,-128.7,-177.0,-310.6,-262.5,-181.1,-139.1,-92.7,-276.8,-342.9,-518.8,694.3,-82.1,-350.4,-139.8,-201.6,-136.9,-222.8,-2.4,-51.9,40.2,-121.7,0,0,3120,0,141,0,
1.7333,-101.4,2.1,-124.5,-173.7,-308.2,-261.3,-176.3,-134.9,-98.7,-271.4,-336.9,-509.2,704.5,-77.9,-345.3,-140.7,-204.6,-130.9,-221.3,-2.4,-49.8,44.7,-116.3,0,0,3126,0,142,0,
1.7367,-108.0,-2.4,-127.2,-177.3,-312.1,-265.2,-178.4,-142.7,-100.8,-274.1,-344.4,-510.1,699.1,-84.2,-350.1,-125.7,-205.8,-131.8,-227.3,-2.4,-54.3,41.7,-115.7,0,0,3132,0,143,0,
1.7400,-106.8,3.0,-123.3,-174.3,-311.8,-261.9,-178.7,-140.6,-102.0,-275.3,-345.3,-509.2,695.5,-87.2,-342.9,-136.8,-205.8,-129.4,-226.1,-2.1,-54.0,42.0,-116.3,0,0,3138,0,144,0,
1.7433,-99.3,-1.2,-123.9,-172.8,-308.8,-260.1,-177.8,-141.8,-100.5,-269.0,-339.3,-509.8,698.5,-89.3,-348.0,-141.0,-207.3,-128.9,-222.8,-2.1,-47.7,45.3,-114.2,0,0,3144,0,145,0,
1.7467,-101.1,-0.3,-127.8,-174.0,-309.4,-263.1,-176.9,-144.5,-97.5,-269.0,-337.5,-515.2,697.6,-86.0,-348.0,-145.2,-207.0,-129.1,-221.0,-2.4,-54.6,49.5,-120.5,0,0,3150,0,146,0,
1.7500,-101.1,-3.6,-130.5,-173.4,-306.4,-259.2,-177.8,-146.0,-94.8,-273.5,-338.4,-516.7,697.3,-84.5,-347.7,-140.7,-207.0,-132.7,-221.6,-2.1,-48.6,48.3,-115.7,0,0,3156,0,147,0,
1.7533,-103.5,-2.4,-127.2,-174.3,-305.8,-259.8,-180.8,-145.7,-101.4,-277.4,-340.8,-497.8,686.8,-85.1,-345.0,-137.1,-209.4,-131.5,-230.6,-2.4,-57.0,44.4,-119.9,0,0,3162,0,148,0,
1.7567,-99.9,1.8,-127.8,-171.3,-304.9,-259.2,-182.3,-143.3,-97.5,-274.7,-339.3,-502.3,693.7,-83.3,-343.8,-137.7,-209.4,-133.9,-221.6,-2.1,-60.6,43.8,-119.3,0,0,3168,0,149,0,
1.7600,-101.7,1.8,-124.2,-169.8,-301.6,-258.0,-178.4,-140.0,-94.5,-268.4,-334.8,-508.6,693.7,-82.4,-342.0,-143.7,-210.0,-129.1,-218.9,-2.1,-53.1,43.5,-118.4,0,0,3174,0,150,0,
1.7633,-99.9,-0.6,-129.0,-174.3,-308.5,-264.3,-183.8,-145.1,-100.2,-272.0,-339.3,-518.5,701.8,-81.2,-341.7,-136.2,-208.8,-134.8,-224.3,-2.4,-57.0,45.0,-122.6,0,0,3180,0,151,0,
1.7667,-93.9,3.0,-125.1,-170.7,-300.4,-261.9,-179.6,-139.7,-99.6,-272.6,-340.5,-506.5,703.9,-80.0,-340.8,-134.1,-209.7,-133.9,-223.1,-2.1,-57.9,52.8,-118.4,0,0,3186,0,152,0,
1.7700,-94.8,2.4,-130.2,-174.3,-304.9,-264.6,-183.2,-142.4,-108.9,-275.3,-342.6,-511.6,707.8,-82.4,-345.6,-143.7,-208.2,-135.4,-225.2,-1.8,-55.8,50.4,-122.0,0,0,3192,0,153,0,
1.7733,-93.6,2.1,-125.1,-170.7,-301.3,-263.1,-181.1,-141.5,-98.7,-266.3,-337.5,-515.8,706.3,-90.5,-352.2,-143.1,-208.8,-125.0,-217.7,-2.4,-55.5,52.2,-112.7,0,0,3198,0,154,0,
1.7767,-94.8,2.7,-131.4,-178.8,-310.0,-260.7,-179.0,-145.1,-100.8,-280.4,-350.7,-505.9,709.6,-81.5,-340.5,-140.1,-207.3,-136.3,-230.0,-2.1,-53.1,61.8,-118.1,0,0,3204,0,155,0,
1.7800,-96.0,4.2,-124.5,-172.5,-300.4,-259.8,-174.2,-142.7,-92.1,-270.2,-338.7,-499.6,713.5,-80.0,-343.5,-140.1,-211.2,-131.5,-220.7,-2.4,-48.3,64.2,-119.0,0,0,3210,0,156,0,
1.7833,-95.7,9.6,-122.1,-169.2,-299.5,-256.5,-169.4,-137.9,-96.0,-266.6,-331.3,-501.1,714.1,-77.9,-339.0,-144.9,-212.7,-124.7,-213.9,-2.1,-41.7,74.1,-108.2,0,0,3216,0,157,0,
1.7867,-95.1,8.1,-124.8,-171.3,-301.6,-258.9,-175.7,-140.6,-90.9,-268.7,-337.8,-505.0,714.1,-80.6,-350.1,-144.3,-210.0,-128.9,-220.7,-2.1,-48.3,58.5,-111.8,0,0,3222,0,158,0,
1.7900,-96.0,7.8,-125.4,-170.4,-301.3,-257.1,-171.5,-137.6,-85.8,-267.8,-338.4,-508.0,703.9,-88.4,-339.6,-143.1,-209.7,-127.1,-217.4,-2.1,-44.7,62.7,-101.9,0,0,3228,0,159,0,
1.7933,-92.7,4.2,-131.7,-172.8,-302.8,-255.9,-175.4,-142.1,-92.1,-272.6,-342.3,-499.9,713.2,-85.7,-337.8,-138.9,-210.3,-129.7,-221.9,-2.4,-48.9,61.8,-115.4,0,0,3234,0,160,0,
1.7967,-95.4,8.7,-131.7,-176.7,-307.3,-260.7,-177.5,-140.3,-103.2,-274.4,-346.8,-496.0,711.1,-82.1,-339.9,-144.3,-209.4,-128.3,-227.9,-2.1,-53.1,61.5,-115.1,0,0,3240,0,161,0,
1.8000,-92.4,12.6,-123.6,-169.5,-300.1,-251.1,-176.0,-135.5,-93.3,-261.2,-333.6,-493.3,715.0,-85.7,-351.9,-140.1,-211.8,-124.1,-218.9,-2.7,-42.9,61.5,-113.6,0,0,3246,0,162,0,
1.8033,-100.8,6.6,-126.6,-174.3,-301.0,-250.2,-170.0,-140.9,-96.9,-271.1,-339.6,-512.8,701.5,-83.9,-344.4,-138.3,-209.1,-128.3,-221.6,-2.4,-52.2,76.8,-108.2,0,0,3252,0,163,0,
1.8067,-97.2,5.1,-127.5,-174.9,-299.2,-253.5,-174.8,-140.6,-87.6,-270.8,-339.6,-517.6,709.3,-81.2,-341.1,-139.8,-210.0,-128.0,-219.5,-2.4,-50.7,57.9,-107.9,0,0,3258,0,164,0,
1.8100,-98.7,6.3,-131.4,-177.0,-300.4,-256.5,-179.3,-140.0,-105.0,-275.0,-341.7,-503.2,714.4,-78.2,-339.6,-136.5,-209.1,-133.0,-222.5,-2.1,-52.2,53.7,-114.2,0,0,3264,0,165,0,
1.8133,-95.7,8.7,-124.5,-170.1,-295.9,-252.0,-174.5,-134.6,-98.4,-263.9,-331.6,-502.0,717.4,-77.0,-334.2,-136.5,-209.7,-128.0,-214.5,-2.1,-50.7,55.2,-111.5,0,0,3270,0,166,0,
1.8167,-99.6,7.2,-124.8,-169.5,-296.8,-253.5,-174.8,-137.0,-102.3,-263.9,-333.6,-504.7,712.0,-88.4,-336.0,-139.5,-206.4,-125.9,-218.9,-2.4,-49.5,61.2,-113.0,0,0,3276,0,167,0,
1.8200,-102.0,7.5,-127.2,-171.3,-300.7,-254.4,-179.3,-138.8,-100.8,-269.9,-339.6,-511.6,711.4,-95.3,-339.6,-139.2,-207.3,-128.9,-219.2,-2.1,-54.6,55.8,-113.0,0,0,3282,0,168,0,
1.8233,-103.5,5.7,-131.1,-174.0,-302.8,-257.1,-176.9,-139.1,-107.1,-275.6,-343.2,-521.2,709.9,-92.3,-344.1,-140.1,-204.9,-135.1,-221.3,-2.4,-54.9,53.1,-116.0,0,0,3288,0,169,0,
1.8267,-100.2,8.1,-124.8,-170.7,-298.9,-252.9,-177.8,-138.5,-102.6,-268.4,-337.5,-516.1,710.5,-95.3,-344.1,-139.2,-209.7,-128.0,-215.6,-2.1,-50.4,57.6,-112.7,0,0,3294,0,170,0,
1.8300,-98.1,10.5,-121.5,-167.4,-298.3,-252.6,-177.2,-134.3,-99.9,-266.3,-332.4,-509.2,714.7,-90.8,-339.9,-138.9,-207.3,-125.6,-211.8,-2.4,-45.6,65.7,-112.7,0,0,3300,0,171,0,
1.8333,-98.4,6.3,-124.8,-172.2,-302.2,-257.1,-177.2,-139.1,-98.7,-270.2,-339.9,-511.3,715.6,-88.7,-342.9,-135.6,-207.3,-128.9,-217.7,-2.4,-50.1,66.0,-105.5,0,0,3306,0,172,0,
1.8367,-93.3,8.4,-118.8,-167.4,-297.4,-250.8,-175.7,-134.0,-102.0,-264.8,-334.2,-504.4,715.3,-84.2,-342.9,-138.3,-206.1,-124.7,-215.1,-2.4,-49.2,61.8,-109.7,0,0,3312,0,173,0,
1.8400,-97.5,1.5,-124.8,-168.6,-299.2,-255.9,-178.1,-136.4,-102.3,-268.1,-338.1,-504.1,710.2,-81.5,-336.0,-136.2,-207.0,-128.3,-220.1,-2.4,-53.1,62.1,-112.4,0,0,3318,0,174,0,
1.8433,-101.7,5.1,-120.3,-164.1,-295.9,-249.0,-173.0,-136.1,-99.3,-266.6,-331.6,-505.3,714.1,-82.1,-332.7,-128.4,-207.3,-124.1,-215.6,-2.1,-54.9,76.5,-112.4,0,0,3324,0,175,0,
1.8467,-101.4,5.4,-122.7,-165.0,-293.5,-244.2,-174.2,-138.8,-87.9,-259.4,-329.2,-505.3,711.1,-89.6,-331.5,-145.2,-207.0,-123.8,-208.8,-2.1,-47.7,74.1,-107.3,0,0,3330,0,176,0,
1.8500,-102.0,7.5,-117.7,-163.2,-291.4,-242.1,-174.2,-132.8,-89.1,-259.4,-324.7,-514.3,709.6,-90.5,-333.9,-142.5,-205.2,-123.2,-206.1,-2.1,-42.6,67.2,-104.6,0,0,3336,0,177,0,
1.8533,-96.6,15.3,-117.4,-162.3,-292.6,-243.3,-173.0,-128.3,-92.4,-260.0,-329.2,-507.4,714.1,-84.8,-324.9,-141.0,-204.9,-118.7,-204.3,-2.4,-40.5,67.2,-104.9,0,0,3342,0,178,0,
1.8567,-99.6,9.0,-119.4,-163.2,-295.9,-242.1,-171.8,-129.2,-94.8,-256.1,-328.6,-510.1,712.0,-83.9,-334.8,-142.2,-202.8,-117.2,-200.4,-1.8,-43.5,68.1,-105.5,0,0,3348,0,179,0,
1.8600,-95.7,12.6,-120.9,-163.2,-298.6,-245.7,-175.7,-130.4,-93.6,-258.2,-331.0,-496.9,718.6,-79.4,-336.3,-137.4,-205.8,-119.6,-205.2,-2.4,-42.6,66.0,-107.3,0,0,3354,0,180,0,
1.8633,-101.4,7.5,-124.8,-168.9,-298.6,-246.9,-178.7,-132.8,-91.8,-266.0,-334.5,-518.2,712.6,-83.3,-339.6,-138.0,-207.3,-131.2,-208.5,-2.4,-41.7,74.4,-106.1,0,0,3360,0,181,0,
1.8667,-101.4,5.4,-125.4,-168.0,-298.0,-249.6,-180.2,-135.5,-96.3,-263.6,-333.9,-517.3,714.1,-82.4,-333.9,-137.4,-206.4,-129.4,-212.7,-2.4,-40.8,75.6,-101.3,0,0,3366,0,182,0,
1.8700,-92.7,14.4,-119.4,-165.3,-297.4,-247.2,-176.6,-130.1,-98.4,-263.0,-334.5,-502.0,713.8,-80.6,-330.0,-140.1,-204.0,-124.7,-207.6,-1.8,-46.2,75.6,-101.0,0,0,3372,0,183,0,
1.8733,-92.4,15.3,-116.8,-162.6,-292.9,-245.4,-180.5,-130.4,-90.3,-257.6,-336.9,-507.4,719.2,-80.0,-343.5,-130.2,-203.7,-118.1,-208.5,-2.1,-41.7,64.5,-101.6,0,0,3378,0,184,0,
1.8767,-96.0,11.1,-121.8,-162.6,-293.5,-240.6,-176.3,-131.0,-93.0,-262.4,-338.1,-507.1,711.4,-79.1,-333.3,-136.5,-205.2,-122.9,-211.2,-2.1,-47.1,69.9,-111.2,0,0,3384,0,185,0,
1.8800,-98.4,9.9,-121.2,-163.8,-294.1,-247.2,-179.6,-131.0,-98.1,-262.1,-334.5,-507.4,705.7,-86.0,-337.5,-135.6,-205.2,-122.6,-212.1,-2.1,-47.1,67.5,-99.8,0,0,3390,0,186,0,
1.8833,-94.5,12.9,-115.0,-161.1,-288.7,-243.6,-170.9,-127.1,-93.3,-254.3,-329.2,-516.4,712.3,-77.6,-342.0,-134.7,-204.9,-115.1,-208.5,-2.7,-44.7,68.4,-101.3,0,0,3396,0,187,0,
1.8867,-98.1,7.2,-121.2,-166.8,-293.2,-250.8,-177.5,-132.8,-97.2,-264.5,-337.2,-531.4,711.7,-85.7,-343.2,-142.2,-203.1,-122.9,-215.3,-2.1,-51.0,63.6,-111.5,0,0,3402,0,188,0,
1.8900,-98.4,2.4,-121.5,-166.5,-293.2,-249.6,-178.1,-136.7,-93.6,-264.5,-338.7,-505.3,711.1,-85.4,-337.5,-140.1,-204.9,-125.0,-215.6,-2.4,-51.9,65.1,-107.6,0,0,3408,0,189,0,
1.8933,-98.7,5.1,-118.5,-166.8,-295.6,-249.6,-178.1,-136.1,-100.5,-259.4,-337.5,-500.8,703.9,-96.5,-348.0,-139.8,-203.1,-120.2,-215.3,-2.4,-51.9,48.3,-101.0,0,0,3414,0,190,0,
1.8967,-98.4,6.9,-123.3,-168.6,-296.5,-253.2,-179.6,-137.3,-99.6,-263.3,-340.2,-505.6,709.9,-81.5,-345.6,-135.3,-204.9,-119.9,-220.1,-2.1,-60.0,49.8,-108.5,0,0,3420,0,191,0,
1.9000,-95.7,5.4,-121.8,-169.2,-297.7,-256.8,-182.9,-136.7,-98.1,-263.0,-341.4,-504.7,707.8,-86.0,-340.8,-137.1,-204.3,-121.1,-218.3,-2.4,-48.0,58.8,-113.9,0,0,3426,0,192,0,
1.9033,-96.6,5.7,-123.6,-169.2,-295.9,-252.3,-179.6,-138.5,-93.9,-263.6,-337.5,-509.2,710.5,-82.1,-335.4,-130.2,-204.0,-119.9,-218.9,-2.1,-50.1,60.9,-108.2,0,0,3432,0,193,0,
1.9067,-97.2,8.4,-119.1,-166.2,-293.2,-252.0,-176.6,-134.0,-91.2,-260.0,-331.6,-505.3,712.6,-80.0,-332.4,-138.6,-205.2,-119.6,-216.8,-2.7,-58.5,64.2,-105.8,0,0,3438,0,194,0,
1.9100,-102.0,10.2,-120.9,-166.2,-292.3,-250.5,-177.8,-135.5,-87.9,-264.2,-336.3,-514.6,704.2,-92.3,-340.2,-135.9,-204.0,-122.9,-216.8,-2.1,-46.2,55.5,-103.4,0,0,3444,0,195,0,
1.9133,-102.0,3.9,-122.1,-167.1,-295.3,-251.4,-181.1,-139.1,-84.6,-263.6,-335.1,-516.4,696.1,-93.8,-338.7,-137.7,-202.8,-122.9,-215.3,-2.4,-48.0,57.9,-107.3,0,0,3450,0,196,0,
1.9167,-100.5,3.9,-117.4,-167.7,-295.9,-250.2,-175.4,-138.2,-105.0,-265.4,-338.7,-522.4,693.4,-92.9,-335.4,-135.0,-202.8,-125.9,-217.1,-2.4,-52.2,70.8,-105.8,0,0,3456,0,197,0,
1.9200,-97.2,4.2,-117.7,-165.3,-292.0,-251.4,-176.0,-136.1,-94.8,-261.2,-333.6,-512.2,700.9,-89.3,-342.6,-127.2,-204.9,-123.5,-216.2,-2.4,-48.9,61.8,-108.2,0,0,3462,0,198,0,
1.9233,-97.2,4.5,-120.6,-166.5,-296.2,-253.2,-177.8,-140.9,-96.6,-261.8,-337.2,-512.5,706.3,-84.5,-336.0,-136.2,-202.5,-126.2,-217.7,-2.4,-47.4,64.2,-107.9,0,0,3468,0,199,0,
1.9267,-92.1,5.7,-117.4,-159.9,-293.2,-249.6,-173.6,-136.7,-87.9,-255.5,-329.2,-508.6,705.4,-89.9,-340.5,-136.8,-201.6,-119.0,-212.4,-2.4,-46.5,64.8,-102.5,0,0,3474,0,200,0,
1.9300,-89.4,9.6,-117.4,-160.5,-295.9,-250.2,-175.4,-137.9,-87.9,-257.6,-331.3,-508.6,709.6,-86.3,-334.5,-139.8,-202.2,-119.9,-212.7,-2.7,-42.9,63.0,-107.0,0,0,3480,0,201,0,
1.9333,-89.7,11.1,-113.2,-161.1,-294.7,-243.6,-172.1,-132.5,-90.0,-254.0,-333.6,-513.4,709.3,-86.3,-339.3,-139.2,-203.7,-116.3,-214.8,-2.1,-52.8,63.9,-104.9,0,0,3486,0,202,0,
1.9367,-89.1,11.1,-114.4,-160.5,-295.9,-243.9,-172.7,-137.0,-92.7,-255.2,-333.6,-517.6,704.8,-88.1,-335.4,-136.8,-200.7,-117.8,-215.3,-2.7,-51.9,59.1,-114.5,0,0,3492,0,203,0,
1.9400,-95.4,9.9,-117.4,-162.9,-298.3,-245.7,-176.0,-136.7,-93.3,-258.5,-336.3,-508.9,702.4,-87.5,-340.5,-135.6,-201.3,-120.2,-213.3,-1.8,-50.7,64.8,-112.7,0,0,3498,0,204,0,
1.9433,-93.0,9.9,-115.3,-165.9,-301.3,-249.0,-176.3,-136.4,-99.6,-261.2,-339.3,-493.6,702.1,-88.1,-335.7,-138.3,-200.1,-117.8,-220.7,-2.4,-55.2,63.0,-110.9,0,0,3504,0,205,0,
1.9467,-89.7,9.3,-117.7,-167.4,-298.3,-244.2,-172.1,-133.7,-89.7,-261.2,-333.9,-502.6,707.2,-79.1,-332.7,-137.4,-202.8,-124.1,-218.0,-2.1,-51.6,66.3,-111.8,0,0,3510,0,206,0,
1.9500,-98.7,5.7,-121.8,-168.0,-303.4,-249.6,-176.9,-135.2,-98.1,-264.2,-338.7,-510.4,703.3,-83.0,-337.8,-138.3,-199.5,-126.2,-220.7,-2.1,-57.6,66.6,-115.7,0,0,3516,0,207,0,
1.9533,-101.4,1.8,-125.1,-169.2,-303.7,-247.2,-176.3,-139.4,-98.1,-264.8,-336.9,-517.3,696.4,-86.3,-338.1,-138.9,-204.6,-128.3,-214.2,-2.4,-55.5,75.6,-105.5,0,0,3522,0,208,0,
1.9567,-93.6,9.6,-120.0,-166.2,-303.1,-251.1,-179.0,-136.7,-90.9,-260.3,-334.8,-513.7,701.5,-83.6,-338.1,-139.2,-202.8,-119.0,-216.8,-2.7,-50.7,69.3,-116.0,0,0,3528,0,209,0,
1.9600,-93.6,6.3,-121.5,-166.2,-300.7,-249.6,-182.3,-133.7,-93.6,-261.8,-333.3,-520.3,704.2,-83.9,-340.5,-135.6,-203.1,-123.5,-210.0,-2.4,-53.4,61.5,-117.5,0,0,3534,0,210,0,
1.9633,-101.7,3.3,-125.4,-169.2,-306.4,-251.7,-181.1,-138.5,-104.7,-267.5,-342.9,-521.5,697.6,-84.8,-336.9,-134.7,-202.2,-128.6,-214.8,-2.1,-55.5,65.7,-119.3,0,0,3540,0,211,0,
1.9667,-105.9,-5.7,-126.9,-168.3,-301.0,-250.5,-179.9,-140.0,-84.0,-265.7,-336.9,-525.4,697.0,-85.4,-336.6,-138.6,-203.4,-127.4,-210.9,-2.4,-58.8,66.0,-116.6,0,0,3546,0,212,0,
1.9700,-103.2,3.3,-122.1,-166.8,-299.8,-249.3,-179.0,-138.2,-101.4,-263.0,-333.3,-508.0,705.4,-85.4,-333.3,-141.6,-201.9,-117.8,-206.7,-2.4,-48.3,66.3,-118.4,0,0,3552,0,213,0,
1.9733,-102.9,1.8,-127.2,-173.1,-306.1,-251.1,-176.3,-141.2,-106.8,-270.5,-342.6,-507.1,704.5,-86.0,-333.6,-135.0,-201.9,-125.9,-215.1,-2.4,-60.3,67.2,-118.1,0,0,3558,0,214,0,
1.9767,-104.1,-0.6,-127.8,-172.2,-303.7,-253.2,-179.0,-142.1,-105.6,-266.9,-342.3,-517.6,700.9,-89.9,-336.9,-142.5,-203.1,-127.4,-213.3,-2.4,-57.6,71.4,-117.2,0,0,3564,0,215,0,
1.9800,-102.6,-0.6,-130.2,-176.7,-305.5,-251.4,-180.2,-146.0,-105.9,-270.5,-341.1,-523.6,700.6,-82.1,-335.7,-139.2,-203.7,-130.3,-218.9,-2.1,-57.9,72.0,-117.5,0,0,3570,0,216,0,
1.9833,-104.1,4.2,-123.6,-168.6,-302.8,-247.5,-179.3,-140.6,-102.6,-263.0,-337.5,-514.0,697.0,-90.2,-341.4,-137.4,-201.9,-119.3,-214.2,-2.4,-59.7,69.3,-116.0,0,0,3576,0,217,0,
1.9867,-105.3,1.5,-125.1,-169.2,-296.2,-243.6,-172.1,-135.5,-89.4,-261.8,-336.0,-523.3,692.5,-90.8,-334.8,-132.3,-203.4,-123.8,-206.4,-2.1,-57.0,79.5,-113.3,0,0,3582,0,218,0,
1.9900,-106.8,3.0,-121.8,-170.7,-299.8,-246.6,-173.9,-138.8,-102.6,-266.3,-343.5,-518.2,695.2,-91.7,-339.9,-139.5,-203.7,-124.1,-213.0,-2.4,-51.3,86.4,-113.3,0,0,3588,0,219,0,
1.9933,-104.4,5.4,-123.6,-168.0,-299.8,-248.7,-171.8,-136.1,-97.5,-265.7,-344.7,-511.6,698.8,-86.9,-335.7,-137.1,-203.1,-123.2,-208.2,-2.1,-52.5,78.6,-114.5,0,0,3594,0,220,0,
1.9967,-101.4,6.0,-124.8,-168.9,-299.8,-249.6,-173.6,-139.1,-109.8,-266.0,-338.7,-512.2,695.5,-90.2,-335.7,-139.8,-202.2,-127.1,-207.3,-2.1,-53.7,76.2,-116.3,0,0,3600,0,221,0,
2.0000,-105.3,8.1,-127.5,-170.7,-304.3,-254.4,-173.9,-135.5,-97.5,-267.5,-338.7,-515.5,693.7,-95.0,-341.7,-133.8,-204.3,-128.9,-215.9,-2.4,-50.1,76.2,-115.4,0,0,3606,0,222,0,
2.0033,-108.6,1.5,-129.9,-174.0,-303.4,-251.7,-175.7,-141.5,-107.7,-275.0,-342.6,-529.0,690.1,-93.5,-343.8,-137.4,-203.7,-130.3,-214.8,-2.4,-54.9,73.5,-113.3,0,0,3612,0,223,0,
2.0067,-109.8,2.4,-126.6,-171.9,-302.8,-249.3,-174.2,-137.3,-100.5,-270.2,-342.0,-532.3,689.2,-93.5,-340.5,-136.5,-204.0,-132.4,-212.7,-2.4,-55.8,77.1,-111.8,0,0,3618,0,224,0,
2.0100,-114.3,1.5,-124.5,-169.8,-304.9,-248.1,-174.8,-137.9,-104.4,-272.3,-344.4,-523.9,691.0,-98.6,-339.6,-139.2,-204.0,-128.0,-213.3,-2.4,-59.7,71.4,-123.2,0,0,3624,0,225,0,
2.0133,-113.1,3.3,-125.4,-170.4,-304.0,-252.3,-178.4,-135.2,-99.0,-268.1,-343.5,-517.0,692.5,-97.7,-339.6,-130.5,-204.3,-129.4,-214.2,-2.1,-53.4,68.1,-123.2,0,0,3630,0,226,0,
2.0167,-108.6,7.5,-122.4,-169.8,-305.2,-250.8,-179.3,-139.4,-106.2,-265.1,-338.4,-518.2,697.0,-92.6,-337.8,-132.9,-204.6,-124.4,-213.0,-2.4,-57.0,66.0,-120.2,0,0,3636,0,227,0,
2.0200,-113.7,7.5,-125.4,-172.2,-299.8,-249.3,-178.7,-137.9,-108.9,-269.9,-339.9,-522.4,690.4,-95.9,-331.2,-150.0,-204.9,-131.8,-211.8,-2.4,-59.4,75.6,-117.5,0,0,3642,0,228,0,
2.0233,-109.8,5.4,-121.2,-165.6,-296.2,-247.2,-175.1,-136.1,-96.0,-266.0,-335.7,-514.9,698.2,-87.8,-333.3,-143.4,-207.3,-124.4,-213.3,-2.1,-49.2,77.1,-118.4,0,0,3648,0,229,0,
2.0267,-113.1,8.4,-119.1,-166.8,-296.8,-250.2,-179.3,-138.8,-95.7,-265.7,-340.2,-506.2,700.9,-87.2,-327.0,-143.1,-206.4,-121.7,-214.8,-2.4,-62.4,69.3,-116.6,0,0,3654,0,230,0,
2.0300,-111.0,12.6,-116.2,-160.8,-293.8,-244.2,-173.0,-137.0,-101.4,-263.9,-336.3,-510.4,702.7,-86.3,-324.3,-141.9,-204.3,-119.6,-210.0,-2.1,-60.3,82.2,-110.0,0,0,3660,0,231,0,
2.0333,-109.5,14.1,-113.8,-157.5,-288.4,-243.9,-175.4,-133.1,-97.5,-261.8,-335.7,-510.4,705.1,-88.4,-336.3,-139.5,-204.0,-120.8,-205.5,-2.1,-50.1,73.2,-108.5,0,0,3666,0,232,0,
2.0367,-117.9,7.8,-117.4,-160.5,-290.8,-245.4,-175.1,-132.8,-103.2,-262.1,-339.6,-508.6,698.8,-96.5,-331.5,-144.9,-203.7,-123.5,-213.6,-2.4,-70.8,80.4,-113.6,0,0,3672,0,233,0,
2.0400,-115.8,10.8,-116.8,-156.9,-292.6,-246.6,-175.4,-131.3,-99.6,-260.9,-339.9,-513.4,699.1,-92.3,-327.9,-133.2,-207.3,-123.8,-212.1,-2.4,-60.9,77.7,-110.0,0,0,3678,0,234,0,
2.0433,-115.8,14.1,-111.1,-154.8,-290.5,-248.4,-177.5,-129.2,-105.3,-260.3,-336.3,-520.3,700.9,-91.7,-330.3,-138.6,-205.8,-126.5,-208.5,-2.4,-55.2,75.9,-106.7,0,0,3684,0,235,0,
2.0467,-117.9,10.5,-116.5,-159.3,-294.1,-249.0,-175.4,-134.0,-108.0,-264.5,-338.7,-522.7,703.6,-89.3,-334.2,-133.2,-206.1,-130.0,-211.8,-2.4,-57.0,75.6,-110.3,0,0,3690,0,236,0,
2.0500,-118.8,4.5,-124.2,-165.9,-300.4,-251.4,-176.9,-137.6,-99.0,-274.7,-344.7,-528.1,695.5,-92.3,-336.0,-150.0,-201.9,-134.2,-219.2,-2.1,-68.4,65.1,-119.9,0,0,3696,0,237,0,
2.0533,-114.0,6.9,-121.5,-167.4,-301.0,-250.2,-179.9,-139.1,-103.8,-269.6,-342.3,-521.2,702.7,-94.4,-337.5,-140.7,-203.7,-133.3,-219.5,-2.4,-59.1,74.1,-118.4,0,0,3702,0,238,0,
2.0567,-116.7,4.2,-128.1,-172.5,-307.0,-256.8,-183.2,-144.2,-107.1,-279.5,-348.0,-517.3,697.3,-98.0,-335.4,-141.6,-202.5,-142.3,-218.9,-1.8,-59.7,73.5,-116.9,0,0,3708,0,239,0,
2.0600,-112.8,9.9,-119.4,-164.7,-299.8,-247.8,-178.7,-139.1,-104.7,-270.8,-348.3,-515.5,692.2,-93.8,-330.3,-143.1,-203.4,-130.6,-219.5,-2.4,-55.8,78.0,-114.5,0,0,3714,0,240,0,
2.0633,-116.7,3.6,-127.5,-170.1,-305.5,-252.6,-182.9,-143.6,-111.9,-274.4,-350.4,-519.4,692.2,-89.6,-327.3,-138.9,-204.9,-137.5,-220.1,-2.4,-69.9,71.7,-114.2,0,0,3720,0,241,0,
2.0667,-113.4,4.2,-125.7,-167.7,-302.2,-249.6,-179.3,-141.5,-106.2,-273.8,-350.1,-532.3,691.6,-94.1,-329.4,-141.9,-202.8,-136.9,-220.1,-2.4,-60.6,75.6,-115.1,0,0,3726,0,242,0,
2.0700,-119.7,-6.0,-134.4,-171.3,-307.6,-254.7,-183.5,-144.5,-98.1,-278.3,-352.5,-536.5,675.2,-100.1,-327.6,-144.0,-202.5,-138.4,-226.7,-2.1,-66.0,75.6,-120.5,0,0,3732,0,243,0,
2.0733,-117.9,5.1,-123.3,-167.1,-301.3,-257.7,-183.8,-140.9,-107.4,-269.6,-347.7,-525.4,686.2,-105.7,-344.1,-141.9,-201.9,-130.0,-227.9,-2.1,-63.6,72.6,-113.3,0,0,3738,0,244,0,
2.0767,-116.7,5.4,-124.5,-169.5,-304.6,-258.9,-180.5,-141.2,-123.0,-270.5,-347.7,-551.8,699.1,-92.6,-337.5,-143.7,-204.9,-130.9,-226.7,-2.1,-63.3,73.2,-114.5,0,0,3744,0,245,0,
2.0800,-119.7,-3.6,-127.8,-173.7,-306.7,-262.2,-181.1,-142.1,-119.4,-272.9,-353.1,-553.3,698.5,-96.2,-334.5,-136.8,-204.6,-133.6,-228.8,-2.4,-64.8,72.9,-114.8,0,0,3750,0,246,0,
2.0833,-122.4,-6.3,-130.2,-173.7,-305.8,-259.8,-178.4,-142.7,-112.8,-276.5,-346.5,-524.2,700.0,-93.5,-333.3,-141.3,-202.2,-140.8,-227.3,-2.1,-62.1,71.4,-115.7,0,0,3756,0,247,0,
2.0867,-118.2,-2.4,-122.1,-169.8,-301.6,-259.5,-178.4,-140.0,-105.6,-272.3,-344.1,-519.1,688.9,-102.7,-335.4,-141.0,-204.6,-134.2,-226.4,-2.1,-52.2,73.2,-119.3,0,0,3762,0,248,0,
2.0900,-117.3,0.6,-127.8,-171.9,-305.2,-259.2,-176.9,-139.7,-106.5,-273.2,-348.0,-523.6,687.7,-93.5,-330.0,-136.5,-203.4,-133.9,-226.7,-2.4,-59.1,74.4,-119.9,0,0,3768,0,249,0,
2.0933,-116.1,1.8,-130.5,-172.2,-305.8,-260.7,-181.1,-137.9,-102.6,-274.4,-349.8,-522.7,681.8,-95.6,-331.5,-140.4,-202.5,-133.9,-227.0,-2.7,-60.9,73.2,-121.7,0,0,3774,0,250,0,
2.0967,-104.7,9.9,-117.1,-164.4,-296.2,-247.2,-168.2,-126.5,-97.5,-260.0,-338.1,-514.6,682.6,-77.6,-324.6,-136.8,-203.1,-122.0,-213.0,-2.1,-51.6,81.3,-115.7,0,0,3780,0,251,0,
2.1000,-112.8,2.7,-123.3,-168.0,-300.4,-250.5,-174.2,-131.3,-106.5,-266.3,-345.6,-520.9,672.5,-92.0,-330.9,-135.6,-205.2,-128.0,-222.2,-2.1,-60.3,78.3,-122.3,0,0,3786,0,252,0,
2.1033,-116.4,-2.1,-130.5,-172.8,-304.6,-255.3,-176.0,-135.5,-102.3,-272.6,-351.0,-522.4,677.0,-92.0,-329.1,-141.0,-203.1,-133.6,-226.7,-2.1,-58.8,78.6,-122.6,0,0,3792,0,253,0,
2.1067,-111.9,-6.6,-134.7,-174.9,-305.5,-254.4,-175.7,-137.3,-104.4,-273.2,-355.5,-522.7,678.2,-89.6,-320.4,-142.2,-203.4,-137.5,-226.7,-2.4,-60.3,82.5,-120.5,0,0,3798,0,254,0,
2.1100,-111.0,-0.3,-131.4,-175.8,-304.3,-254.1,-177.2,-138.2,-102.3,-273.2,-355.5,-522.1,675.2,-90.5,-323.1,-143.4,-205.5,-133.0,-230.0,-2.4,-62.7,81.3,-116.9,0,0,3804,0,255,0,
2.1133,-114.9,-6.3,-138.3,-180.6,-310.3,-257.4,-180.8,-143.6,-112.5,-279.2,-360.3,-527.5,674.3,-92.6,-324.6,-141.3,-203.7,-140.8,-234.5,-1.8,-69.9,76.8,-125.6,0,0,3810,0,0,0,
2.1167,-111.9,-1.5,-130.8,-176.7,-307.3,-252.6,-183.8,-143.0,-105.0,-270.5,-352.5,-514.0,673.4,-92.3,-335.4,-140.1,-203.1,-130.0,-236.0,-2.1,-63.0,71.4,-122.3,0,0,3816,0,1,0,
2.1200,-116.7,-6.0,-131.1,-177.9,-310.3,-253.8,-181.4,-143.0,-114.0,-274.1,-354.3,-532.3,659.6,-90.8,-333.6,-137.4,-204.9,-136.6,-234.5,-2.4,-65.1,61.5,-123.8,0,0,3822,0,2,0,
2.1233,-115.2,-3.3,-128.1,-171.3,-307.0,-247.5,-179.0,-140.0,-96.6,-272.3,-350.1,-543.4,654.5,-96.2,-329.1,-141.0,-204.3,-133.9,-231.2,-2.4,-67.2,73.5,-110.9,0,0,3828,0,3,0,
2.1267,-108.6,1.8,-122.1,-167.7,-307.9,-249.0,-182.0,-140.3,-103.2,-269.6,-350.7,-535.0,661.4,-98.0,-326.1,-142.8,-205.5,-127.7,-230.0,-2.1,-69.9,64.2,-132.8,0,0,3834,0,4,0,
2.1300,-109.5,3.6,-124.2,-172.8,-309.1,-257.7,-186.8,-143.0,-108.9,-273.2,-351.3,-514.0,656.6,-90.2,-320.4,-143.7,-204.0,-133.6,-229.7,-2.1,-72.0,62.4,-137.0,0,0,3840,0,5,0,
2.1333,-110.7,2.4,-123.6,-173.4,-310.3,-259.2,-182.6,-140.3,-99.0,-274.1,-353.1,-525.1,663.5,-79.1,-315.0,-136.5,-201.0,-134.5,-228.8,-2.1,-62.7,63.6,-123.5,0,0,3846,0,6,0,
2.1367,-108.3,5.4,-125.7,-173.1,-308.8,-257.4,-179.6,-139.7,-107.1,-271.7,-352.8,-517.6,668.6,-86.0,-322.8,-138.3,-203.4,-128.6,-232.7,-2.4,-66.3,61.8,-122.6,0,0,3852,0,7,0,
2.1400,-103.5,5.4,-120.0,-165.9,-303.4,-249.3,-174.2,-136.7,-104.1,-265.7,-345.0,-523.0,672.5,-82.1,-318.3,-143.7,-203.1,-120.5,-221.0,-2.4,-61.2,67.8,-120.5,0,0,3858,0,8,0,
2.1433,-109.5,2.1,-126.9,-165.6,-307.0,-251.1,-173.6,-134.9,-96.6,-266.3,-341.4,-528.1,672.5,-88.1,-321.9,-135.0,-199.2,-123.8,-217.7,-2.1,-59.4,73.5,-119.9,0,0,3864,0,9,0,
2.1467,-118.5,-6.0,-129.6,-175.8,-310.0,-258.6,-182.0,-144.5,-109.5,-274.7,-346.8,-533.5,658.7,-96.5,-327.6,-136.8,-199.2,-135.1,-223.1,-2.4,-69.6,67.2,-125.6,0,0,3870,0,10,0,
2.1500,-115.8,-4.8,-132.9,-174.6,-306.7,-254.7,-178.7,-143.6,-105.3,-274.4,-353.1,-523.3,664.1,-89.3,-327.6,-148.5,-192.6,-131.8,-227.6,-2.1,-66.3,60.0,-128.9,0,0,3876,0,11,0,
2.1533,-116.7,-4.2,-122.4,-167.1,-297.7,-247.8,-175.7,-140.3,-102.6,-265.4,-347.7,-520.0,662.9,-92.6,-325.5,-147.6,-197.1,-126.2,-220.1,-2.4,-70.2,70.8,-120.2,0,0,3882,0,12,0,
2.1567,-110.4,-5.1,-125.1,-169.2,-304.9,-253.8,-176.3,-138.8,-105.6,-268.4,-349.2,-532.9,672.2,-81.5,-317.7,-131.7,-197.4,-130.3,-225.2,-2.1,-64.5,75.6,-128.0,0,0,3888,0,13,0,
2.1600,-111.9,-0.9,-118.0,-165.6,-299.2,-247.2,-175.4,-134.6,-105.3,-264.8,-344.7,-533.8,668.6,-86.9,-324.3,-137.1,-197.7,-128.0,-220.7,-2.7,-64.2,75.9,-118.4,0,0,3894,0,14,0,
2.1633,-115.2,-5.7,-127.2,-169.2,-302.5,-255.9,-180.2,-137.6,-108.3,-270.2,-348.0,-535.9,664.4,-86.3,-324.6,-141.3,-198.6,-136.3,-221.3,-2.1,-62.1,69.6,-122.9,0,0,3900,0,15,0,
2.1667,-118.2,-5.1,-122.1,-167.7,-302.8,-255.3,-178.4,-137.6,-111.3,-265.7,-346.2,-527.2,662.9,-88.1,-322.5,-138.9,-196.8,-130.3,-221.3,-2.1,-61.8,72.3,-121.1,0,0,3906,0,16,0,
2.1700,-117.9,-9.3,-128.7,-174.6,-309.7,-260.7,-179.9,-137.9,-110.1,-274.4,-350.7,-535.3,659.6,-86.0,-327.3,-142.5,-194.7,-136.9,-227.3,-2.1,-72.3,73.2,-122.9,0,0,3912,0,17,0,
2.1733,-113.7,-1.8,-121.2,-167.1,-305.2,-261.0,-178.4,-142.4,-115.2,-271.4,-349.8,-533.8,663.2,-87.2,-319.8,-141.9,-196.5,-132.1,-224.3,-2.4,-76.8,70.8,-125.6,0,0,3918,0,18,0,
2.1767,-119.7,-5.7,-125.7,-172.2,-309.1,-263.7,-182.9,-143.3,-109.2,-268.7,-351.3,-532.9,659.0,-90.5,-322.8,-137.1,-197.1,-130.9,-227.9,-2.4,-71.4,63.9,-134.9,0,0,3924,0,19,0,
2.1800,-114.6,-2.7,-126.6,-171.6,-306.4,-263.4,-179.9,-140.6,-107.4,-269.6,-351.3,-541.3,664.1,-82.1,-319.8,-137.7,-201.0,-134.2,-226.7,-2.4,-64.5,63.9,-128.3,0,0,3930,0,20,0,
2.1833,-116.4,-2.7,-128.4,-171.9,-308.8,-259.2,-175.4,-142.7,-100.8,-272.6,-349.5,-535.9,659.9,-86.0,-320.1,-131.7,-211.8,-137.2,-226.4,-1.8,-63.6,63.9,-115.4,0,0,3936,0,21,0,
2.1867,-113.1,-2.7,-126.6,-171.0,-308.8,-256.8,-172.7,-141.2,-99.9,-267.8,-348.9,-533.8,664.7,-84.5,-315.9,-141.9,-218.1,-135.7,-223.4,-2.7,-61.2,60.3,-124.7,0,0,3942,0,22,0,
2.1900,-113.7,-4.5,-129.0,-173.1,-312.1,-255.6,-176.0,-139.4,-113.7,-272.3,-354.6,-526.3,661.7,-90.2,-317.4,-145.2,-216.9,-136.6,-231.8,-2.7,-69.0,60.6,-131.9,0,0,3948,0,23,0,
2.1933,-117.6,-10.8,-129.9,-174.3,-312.7,-257.1,-171.2,-137.6,-108.3,-281.0,-363.2,-526.3,654.8,-91.1,-314.1,-144.3,-216.9,-146.5,-238.0,-2.4,-75.6,64.5,-125.3,0,0,3954,0,24,0,
2.1967,-117.9,-4.2,-128.7,-172.8,-315.1,-258.0,-174.8,-136.1,-111.0,-281.6,-369.5,-522.4,658.4,-90.8,-321.3,-140.1,-221.7,-145.0,-243.7,-2.4,-71.1,54.9,-131.6,0,0,3960,0,25,0,
2.2000,-117.3,-0.9,-125.4,-168.9,-307.3,-250.2,-169.1,-135.5,-105.3,-280.1,-366.2,-518.2,662.3,-83.6,-313.8,-135.9,-221.4,-138.7,-234.5,-2.4,-70.8,63.3,-124.7,0,0,3966,0,26,0,
2.2033,-119.4,-0.3,-119.7,-162.9,-301.6,-248.4,-173.0,-141.8,-93.0,-255.2,-337.8,-522.4,664.4,-87.8,-317.7,-138.0,-222.0,-118.7,-211.8,-2.4,-53.1,65.1,-124.4,0,0,3972,0,27,0,
2.2067,-117.3,2.7,-113.8,-158.1,-295.9,-245.1,-173.9,-135.8,-81.3,-254.6,-333.9,-520.0,672.8,-79.1,-315.9,-132.3,-218.7,-119.0,-205.2,-2.4,-42.3,66.0,-118.1,0,0,3978,0,28,0,
2.2100,-117.9,0.3,-125.4,-165.9,-300.4,-248.7,-175.1,-138.2,-97.5,-271.7,-346.2,-512.8,671.9,-82.1,-312.9,-139.8,-212.1,-141.4,-216.8,-2.4,-49.2,66.0,-119.9,0,0,3984,0,29,0,
2.2133,-118.2,-3.6,-124.2,-169.2,-303.1,-247.8,-176.6,-137.3,-93.6,-274.1,-353.4,-521.8,670.1,-80.0,-313.5,-138.6,-206.4,-140.2,-221.3,-2.4,-51.3,69.0,-119.9,0,0,3990,0,30,0,
2.2167,-120.0,-2.4,-127.5,-167.1,-301.6,-253.2,-172.4,-134.9,-93.3,-266.6,-343.8,-515.2,667.1,-79.1,-309.0,-135.0,-203.7,-139.0,-213.9,-2.1,-43.2,75.3,-114.8,0,0,3996,0,31,0,
2.2200,-122.1,-2.1,-132.0,-170.1,-305.2,-253.8,-171.2,-137.9,-104.4,-285.2,-361.2,-516.7,669.8,-80.6,-313.5,-138.6,-205.5,-151.9,-226.1,-2.4,-51.9,74.7,-116.0,0,0,4002,0,32,0,
2.2233,-120.3,-4.2,-136.8,-175.5,-309.1,-253.5,-172.7,-142.4,-100.2,-284.9,-360.9,-514.9,665.0,-76.4,-309.9,-142.5,-206.4,-150.4,-222.2,-2.1,-49.8,67.8,-120.5,0,0,4008,0,33,0,
2.2267,-116.7,-0.3,-131.7,-171.9,-305.5,-252.9,-174.5,-142.1,-86.7,-275.9,-358.2,-511.9,667.4,-75.5,-316.5,-137.7,-206.1,-142.6,-218.3,-1.8,-42.9,63.6,-116.3,0,0,4014,0,34,0,
2.2300,-115.5,3.9,-125.7,-168.0,-297.4,-245.1,-172.4,-140.6,-76.2,-271.1,-340.5,-501.7,663.2,-79.7,-313.8,-138.3,-204.6,-139.6,-204.0,-2.1,-30.6,73.5,-106.7,0,0,4020,0,35,0,
2.2333,-111.0,7.5,-125.7,-167.1,-301.0,-246.3,-171.8,-137.6,-82.2,-273.8,-351.6,-506.5,671.6,-74.6,-311.1,-138.0,-205.2,-142.3,-213.6,-2.1,-33.3,75.6,-113.9,0,0,4026,0,36,0,
2.2367,-111.6,4.8,-134.4,-171.6,-303.4,-244.5,-169.7,-137.3,-95.4,-282.8,-360.0,-524.2,675.5,-77.6,-314.1,-136.8,-207.3,-146.2,-216.8,-2.1,-37.5,77.1,-113.6,0,0,4032,0,37,0,
2.2400,-116.7,-1.5,-143.7,-184.2,-314.5,-251.1,-176.9,-145.1,-106.8,-297.7,-376.1,-525.7,679.1,-68.9,-317.1,-136.8,-207.0,-159.9,-231.2,-2.4,-51.9,63.3,-120.5,0,0,4038,0,38,0,
2.2433,-113.1,-4.2,-141.9,-178.2,-305.8,-241.8,-169.4,-143.0,-97.2,-291.4,-364.7,-515.8,670.1,-84.8,-320.1,-138.6,-205.2,-153.1,-220.4,-2.4,-45.3,67.8,-107.6,0,0,4044,0,39,0,
2.2467,-111.3,-2.1,-141.3,-176.1,-304.3,-241.2,-172.4,-142.1,-93.3,-291.1,-366.2,-518.8,669.5,-88.1,-324.0,-141.9,-206.1,-151.0,-224.9,-2.4,-45.3,62.4,-103.7,0,0,4050,0,40,0,
2.2500,-109.5,0.0,-134.7,-173.7,-302.5,-239.7,-172.1,-140.0,-88.2,-289.0,-365.0,-526.9,670.1,-76.1,-313.8,-140.1,-205.5,-148.3,-223.7,-2.4,-45.6,65.4,-115.1,0,0,4056,0,41,0,
2.2533,-108.3,7.8,-132.9,-174.3,-300.7,-245.7,-167.3,-136.7,-98.4,-285.8,-362.6,-514.0,669.2,-77.9,-310.5,-141.9,-207.3,-145.3,-224.9,-2.7,-38.4,74.4,-110.3,0,0,4062,0,42,0,
2.2567,-106.5,2.7,-135.0,-171.9,-298.9,-238.8,-166.4,-131.9,-94.5,-287.9,-361.2,-512.2,666.8,-86.0,-312.0,-138.6,-206.1,-147.1,-219.5,-2.4,-41.4,74.4,-103.7,0,0,4068,0,43,0,
2.2600,-107.1,-2.1,-140.4,-178.2,-303.1,-246.0,-165.5,-135.2,-99.9,-291.1,-364.7,-521.2,665.9,-78.8,-309.6,-137.7,-205.2,-152.8,-223.7,-2.4,-45.9,73.2,-117.5,0,0,4074,0,44,0,
2.2633,-105.3,1.5,-134.7,-177.0,-302.8,-243.0,-164.3,-132.5,-93.3,-294.1,-366.8,-517.3,668.9,-82.7,-316.2,-138.0,-207.6,-151.6,-223.1,-2.1,-40.5,70.5,-117.5,0,0,4080,0,45,0,
2.2667,-105.0,-0.6,-137.7,-179.4,-304.0,-242.4,-168.8,-139.4,-107.4,-295.0,-372.5,-523.3,663.2,-80.0,-312.3,-136.8,-207.3,-152.5,-226.7,-2.1,-50.4,80.4,-114.8,0,0,4086,0,46,0,
2.2700,-101.1,0.9,-135.9,-174.3,-303.7,-242.1,-167.3,-137.0,-98.7,-290.5,-365.3,-517.3,668.6,-89.0,-319.8,-140.1,-210.0,-148.0,-224.3,-2.1,-44.7,69.9,-111.5,0,0,4092,0,47,0,
2.2733,-105.3,-0.9,-138.6,-177.6,-308.2,-247.2,-168.8,-138.5,-98.1,-295.0,-372.5,-512.8,669.8,-83.6,-321.6,-138.0,-204.9,-151.0,-231.5,-2.1,-55.2,63.9,-125.6,0,0,4098,0,48,0,
2.2767,-110.7,-3.9,-140.1,-179.4,-307.3,-247.2,-167.9,-137.9,-111.3,-300.1,-374.0,-518.8,661.1,-86.3,-318.6,-139.2,-197.7,-158.7,-233.0,-1.8,-47.4,65.7,-124.4,0,0,4104,0,49,0,
2.2800,-106.5,1.2,-132.6,-174.3,-301.9,-247.8,-161.9,-132.5,-100.2,-289.0,-369.8,-534.1,665.3,-84.5,-316.2,-134.1,-159.0,-143.8,-227.3,-2.4,-45.6,77.1,-119.3,0,0,4110,0,50,0,
2.2833,-116.1,-0.9,-135.6,-175.2,-304.0,-247.5,-164.0,-133.7,-105.9,-288.2,-368.3,-528.1,662.0,-92.6,-316.5,-143.4,-78.0,-142.3,-222.2,-2.1,-50.1,79.5,-116.6,0,0,4116,0,51,0,
2.2867,-114.6,0.6,-131.1,-173.7,-299.5,-240.0,-157.7,-127.4,-102.3,-289.3,-365.9,-515.2,665.3,-81.8,-297.6,-124.2,5.7,-140.8,-226.1,-2.1,-45.0,88.8,-106.1,0,0,4122,0,52,0,
2.2900,-113.4,0.9,-138.0,-180.9,-308.8,-243.0,-167.3,-137.0,-100.5,-294.4,-371.6,-522.4,656.9,-86.9,-302.4,-131.1,-26.4,-150.4,-230.9,-2.1,-41.7,76.5,-104.3,0,0,4128,0,53,0,
2.2933,-117.6,-3.3,-138.0,-185.4,-308.5,-249.9,-169.1,-137.9,-90.9,-290.2,-371.9,-552.7,657.5,-88.1,-310.5,-148.5,-185.1,-145.0,-236.9,-1.8,-51.6,70.8,-112.7,0,0,4134,0,54,0,
